'FP1-*SD', 'FP2-*SD', 'F3-*SD', 'F4-*SD', 'C3-*SD', 'C4-*SD', 'P3-*SD', 'P4-*SD', 'O1-*SD', 'O2-*SD', 'F7-*SD', 'F8-*SD', 'T7-*SD', 'T8-*SD', 'P7-*SD', 'P8-*SD', 'FZ-*SD', 'CZ-*SD', 'PZ-*SD'
0.638637,-0.896976,0.970081,1.02586,1.88687,0.567997,1.11937,0.704165,-0.923919,-2.84998,0.506982,0.652307,0.0366711,-0.0462122,0.329581,-0.609225,-0.987346,-0.687171,0.883966
0.227859,-0.684209,0.886302,0.60185,1.82367,0.336115,1.23232,0.716374,-1.05599,-3.13601,0.0702308,0.70363,0.568814,0.576892,0.245139,-1.14911,-0.96381,-0.440597,1.06812
0.442661,-1.2618,1.08922,0.618995,1.80879,0.255539,1.27766,0.642657,-1.01212,-3.08189,-0.100823,0.429912,0.495686,0.90838,0.309415,-1.4349,-0.939158,-0.189957,1.21336
0.541543,-1.25721,1.14152,0.325413,1.58922,0.262759,1.37513,0.837935,-1.17194,-3.06662,0.360341,0.253881,0.238005,0.778621,-0.0860353,-1.21346,-0.668759,-0.000981744,1.43611
-0.0915998,-1.0891,1.13747,-0.278342,1.50815,0.180523,1.1139,0.867312,-1.16492,-3.03312,0.813428,0.287079,0.441488,0.856761,-0.109739,-1.44271,-0.624819,0.0742228,1.45123
-0.418865,-0.636631,1.20608,-0.823375,1.3296,-0.0171424,1.06669,0.824647,-1.2295,-3.08461,0.710263,0.162759,0.978432,0.871094,-0.267852,-1.25409,-0.633191,-0.0681586,1.70736
-0.12368,-0.669152,1.29967,-0.46567,1.50863,0.234212,1.50319,0.874673,-1.26124,-2.7612,1.16608,-0.40972,-0.101108,0.388194,-0.571001,-0.848274,-0.685349,-0.0942119,1.71633
0.00752707,-0.784549,1.07753,-0.509329,1.56406,0.532536,1.82322,0.885317,-1.17364,-2.48502,1.21371,-0.74911,-0.174698,0.338721,-0.957857,-0.700328,-0.645254,-0.0442642,1.64286
0.0208226,-0.465646,1.32425,-0.366247,1.83805,0.661297,1.89393,0.727613,-1.11118,-2.205,1.63659,-0.565861,-1.03295,-0.0883497,-0.979112,-0.602084,-0.769848,-0.103183,1.53288
-0.267816,-0.144416,0.891191,-0.450346,1.78569,0.482829,1.76852,0.732748,-1.13497,-2.07232,1.44036,-0.457461,-0.413419,0.25497,-1.37743,-0.551055,-0.731211,-0.537223,1.70473
-0.343076,-0.160243,0.951497,-0.334137,1.86816,0.313572,1.86695,0.887146,-0.886056,-1.75415,1.04189,-0.420504,-0.405143,-0.0210615,-1.33793,-0.313788,-0.72749,-1.00195,1.65763
0.370043,-0.56841,1.10201,0.0457235,1.96086,0.250505,2.06949,1.09435,-0.910011,-1.55666,0.493412,-0.661818,-0.669398,-0.258117,-1.52222,0.204468,-0.651921,-1.24257,1.75866
0.151867,-0.529179,1.09655,-0.551948,2.30487,0.523961,2.18269,1.11339,-0.906215,-1.57452,0.519461,-0.736544,-0.904773,0.335239,-1.48151,-0.0643045,-0.673131,-1.44024,1.80711
-0.0470781,-0.158477,0.780858,-0.788206,2.03385,0.832961,1.87569,1.17296,-0.732497,-1.35081,0.34655,-0.798774,-0.699993,-0.358635,-1.32988,0.164344,-0.754964,-1.48895,1.75747
0.133489,-0.416254,0.452539,-0.24197,1.94456,0.733105,1.97767,1.21763,-1.05289,-1.42437,0.287243,-1.1561,-0.729593,0.392031,-1.2874,0.108559,-0.68631,-1.51501,1.79216
-0.233175,-0.720582,-0.0959764,-0.850345,1.98886,1.11543,1.8308,1.23083,-1.07059,-1.34236,0.119037,-1.40468,-0.297872,0.749786,-1.22008,0.473879,-0.607547,-1.48147,1.55742
-0.403699,-0.808402,-0.623899,-1.13287,2.28646,1.37675,1.93886,1.30741,-1.13563,-1.16199,0.109243,-1.30586,-0.465857,0.376904,-1.16045,0.823454,-0.366762,-1.19015,1.34331
-0.453262,-0.612713,-0.67637,-1.26303,2.02918,1.71983,1.66273,1.48938,-1.19042,-0.842143,0.435338,-1.1903,-0.94102,-0.225225,-1.26195,1.07547,-0.35197,-0.922593,1.30748
-0.542509,-0.381646,-1.00171,-1.39486,1.65823,1.54197,1.27772,1.45204,-1.27518,-0.623141,0.277753,-1.63465,-0.294022,-0.260196,-1.26003,1.30893,-0.349676,-0.3852,1.18969
-0.873311,-0.67477,-1.52153,-1.60798,0.961186,1.17618,0.958606,1.43479,-1.37857,-0.606154,-0.384795,-1.46315,1.26664,0.13995,-1.50745,1.26012,0.0753035,-0.0955743,1.13575
-0.223173,-0.813137,-0.886822,-1.48924,0.8406,1.02767,1.11679,1.38963,-1.35394,-0.36284,0.387925,-1.46033,-0.736716,0.170864,-1.14307,1.83348,0.174998,-0.0665027,1.15867
-0.56723,-0.916512,-1.09845,-1.75097,0.262361,0.786933,0.635582,1.27907,-1.42273,-0.385884,-0.227715,-1.11437,0.623762,0.838168,-1.04765,1.5553,0.264025,0.0135435,0.973696
-0.56601,-1.04165,-1.09473,-1.99318,0.120904,0.539064,0.609728,1.22384,-1.46106,-0.281036,-0.320682,-0.987512,0.507278,1.03058,-1.19543,1.84751,0.45011,0.164162,0.940902
0.14036,-1.67231,-1.10066,-1.36577,0.465223,0.59007,0.503744,1.07396,-1.446,-0.418886,-0.366762,-0.824118,0.366399,1.17045,-0.994221,1.53126,0.448963,0.175543,1.09612
0.214156,-1.43431,-0.822464,-1.6507,0.44781,0.878103,0.619895,0.897284,-1.46343,-0.484426,-0.287607,-0.501071,-0.261221,1.08492,-1.05608,1.59696,0.422977,0.24381,1.06666
0.290311,-1.72105,-0.882368,-1.36486,0.373848,1.02388,0.455178,0.829407,-1.38351,-0.675358,-0.397334,-0.411768,0.41294,1.43489,-1.22455,1.41152,0.166315,0.375984,0.967861
0.321659,-1.39919,-0.951247,-0.998958,0.330566,1.25028,0.274308,0.890915,-1.23465,-0.662508,-0.147973,-0.277935,-0.154426,0.900419,-1.09009,1.29691,-0.0876491,0.542365,0.986337
0.413345,-1.20427,-1.08224,-1.1272,0.135995,1.58556,0.400202,0.958946,-1.30373,-0.902764,-0.266323,-0.395531,0.0311778,1.09265,-1.28975,0.890328,-0.0583145,0.53593,1.09613
0.306778,-1.0235,-0.963402,-1.11972,0.00792358,1.85204,0.327544,1.23922,-1.20278,-0.763788,-0.445434,-0.111417,0.185725,0.375602,-1.34279,0.914843,0.0242936,0.363534,0.994938
-0.0392309,-0.681207,-1.01102,-1.11836,-0.0714162,1.90889,0.334124,1.32799,-0.937925,-0.607944,0.0647585,0.158347,-0.0622083,-0.180028,-1.21352,1.12482,-0.293208,0.176822,0.825773
0.0442422,-0.59618,-1.12389,-0.273104,-0.190414,1.38842,0.308037,1.30415,-0.879958,-0.926377,0.130486,0.0549066,0.248805,0.0534777,-1.00662,0.704745,-0.42878,0.151188,0.855817
0.117551,-0.807327,-1.32042,-0.0348944,-0.054359,1.00023,0.231558,1.12183,-0.621547,-0.865697,0.040406,-0.058894,0.189243,0.187682,-0.68763,0.767418,-0.368622,0.150329,0.781964
-0.152304,-0.789573,-1.37791,-0.255113,-0.132111,0.473977,0.0883642,0.741982,-0.672588,-0.814535,0.204715,-0.154057,0.445496,0.937216,-0.53459,0.750246,-0.354358,0.125491,0.752188
-0.445008,-0.402578,-1.03359,-0.420871,-0.0452618,0.406374,-0.0574826,0.804504,-0.560176,-0.877634,0.670786,-0.0145775,0.266409,0.623035,-0.508678,0.806836,-0.588693,0.0274191,0.631577
-0.388614,-0.311981,-0.905942,-0.00805429,-0.292923,0.0709853,-0.353018,0.660706,-0.751762,-1.03846,0.896704,-0.120577,0.954354,0.684932,-0.581309,0.835821,-0.60488,0.192521,0.66209
0.352031,-0.383846,0.104129,-0.217635,-0.314079,-0.481403,-0.12632,0.474023,-0.581011,-0.877645,1.17849,-0.170577,-0.995189,1.10986,-0.244452,0.873744,-0.474735,0.577053,0.733629
0.154022,-0.56459,0.240747,-0.572542,-0.488276,-0.159264,-0.355778,0.53844,-0.405712,-0.540235,0.654107,-0.322058,-0.0871371,0.565922,-0.214971,1.21705,-0.454362,0.558483,0.380143
0.251278,-0.354727,0.59937,-0.36924,-0.72684,-0.562007,-0.487063,0.59889,-0.381266,-0.650121,0.745459,-0.0932566,-0.0141672,0.92966,-0.337057,0.635149,-0.368188,0.514362,0.449117
0.453151,-0.00079925,1.02778,-0.1811,-0.943017,-0.571633,-0.476938,0.69859,-0.270207,-0.535683,0.968812,0.22919,-0.428154,0.360103,-0.620905,0.531914,-0.268866,0.538047,0.444506
0.103157,0.258038,1.03052,-0.647564,-1.23507,-0.969425,-0.726094,0.725895,0.0935572,-0.256451,0.903246,0.491172,-0.206187,0.0523452,-0.53547,0.44886,0.0746213,0.506041,0.326141
0.801883,0.23465,1.31662,0.369203,-1.40029,-1.58787,-0.79387,0.574692,0.508581,0.0607959,0.889838,0.583882,-1.28472,-0.0842086,0.0756787,0.205308,0.157974,0.452153,0.273044
0.312389,0.126556,1.10375,-0.218318,-1.71287,-1.31945,-0.857698,0.650084,0.480666,0.123717,1.09629,1.00213,-0.588281,-0.317461,-0.689614,0.105434,0.220395,0.541505,0.477199
0.428227,0.186703,1.60217,-0.124849,-1.818,-1.49122,-0.855066,0.560103,0.71066,0.0807817,1.46743,0.99415,-0.991469,-0.231107,-0.535294,0.0488601,0.279901,0.230752,0.538997
-0.27729,0.889086,1.37424,-0.417748,-1.82582,-1.14737,-0.744858,0.499587,0.759061,0.206694,1.57145,1.06896,-0.845558,-0.765254,-0.532446,0.162109,0.156609,0.0844513,0.309526
-0.329333,0.757508,0.80999,0.0419821,-1.91729,-1.59312,-0.738469,0.243065,0.902911,0.206694,1.45287,0.803735,-0.500937,-0.170039,-0.507526,-0.138269,0.399999,0.065692,0.321883
-0.231752,0.440885,0.21031,0.149798,-1.62677,-1.91277,-0.728174,0.0534508,0.78799,0.0875621,1.31152,0.635258,0.0565825,0.580982,-0.32811,-0.195683,0.332493,0.00998034,0.337978
-0.362349,0.614341,0.055777,-0.277236,-1.30345,-1.59323,-0.434634,0.0649105,0.892777,0.0224129,1.91531,0.681569,-0.994511,0.379557,0.0302887,-0.207663,0.1554,0.0222,0.213493
-1.07364,0.844493,-0.288414,-0.19639,-1.53737,-1.52386,-0.584089,-0.16543,0.685232,0.0396248,2.09188,0.942756,0.236881,0.41899,-0.259497,-0.188962,-0.125945,-0.292745,0.13845
-1.27563,1.1232,-0.36198,-0.134186,-1.37426,-1.50524,-0.387554,-0.409897,0.632174,0.040988,1.98162,1.14007,0.176801,0.37998,-0.169901,-0.0597342,-0.202197,-0.41316,-0.0251149
-1.01668,0.864895,-0.117541,0.0624457,-0.942069,-1.50428,-0.196134,-0.487515,0.520231,-0.0882793,1.74723,1.27544,-0.0654523,0.175783,0.114859,-0.0219119,-0.268091,-0.391781,0.0724944
-1.40188,1.17348,-0.318885,-0.00593961,-0.968152,-1.45515,-0.497167,-0.608833,0.343645,-0.119977,1.69454,1.31822,0.253808,-0.0583819,0.146469,0.185397,-0.33352,-0.570759,0.1046
-1.46519,1.32613,-0.244515,-0.243499,-1.14567,-1.1786,-0.658615,-0.721998,0.38573,-0.17179,1.55992,1.063,0.99484,0.170797,0.283311,0.26336,-0.342016,-0.883754,0.0559132
-1.47856,1.23736,-0.16298,-0.253259,-1.01672,-1.27743,-0.77275,-1.03225,0.454922,-0.18515,1.80968,0.956699,0.479667,0.71277,0.74531,0.309013,-0.25885,-1.09841,-0.0156088
-1.70837,1.41655,-0.324745,-0.344385,-1.32759,-1.643,-0.904757,-1.01352,0.400041,-0.13381,1.37196,0.886279,1.1586,1.0464,0.857969,0.525244,0.0182158,-1.18671,-0.069242
-1.35549,1.14579,-0.121391,-0.62928,-1.24936,-2.19754,-0.609136,-1.19167,0.45346,0.0243806,1.52276,0.857264,-0.0609683,1.46175,0.972789,0.795226,0.47408,-1.13198,-0.161486
-1.32158,1.13009,-0.568615,-0.0629707,-1.45194,-1.73251,-1.07911,-0.936097,0.411561,0.19586,1.25369,0.637287,0.836371,0.539284,0.867332,1.10068,0.514857,-1.22184,-0.240938
-1.31223,1.05899,-0.297924,-0.0169359,-1.45902,-1.48151,-1.18149,-0.718472,0.412608,0.21383,1.09189,0.519939,0.932049,0.580391,0.690269,1.28021,0.517213,-1.20266,-0.432838
-1.19972,1.20669,-0.0628934,-0.143654,-1.13432,-1.57108,-1.11891,-0.613417,0.303883,0.277095,1.4057,0.483371,0.376751,0.457054,0.642302,1.46267,0.545246,-0.968349,-0.605255
-0.961867,1.22879,-0.0304465,0.231554,-0.890471,-1.30664,-1.26713,-0.295388,0.246385,0.131161,1.17664,0.612226,0.278477,-0.162297,0.703857,1.54334,0.461056,-0.968307,-0.622708
-1.14748,1.34929,-0.304319,0.145992,-0.930271,-1.17943,-1.55322,-0.261251,0.302563,0.184693,0.972063,0.336672,1.00783,0.201491,0.58995,1.43461,0.375006,-1.12903,-0.772257
-0.870994,1.03493,-0.0288058,0.0172242,-0.699928,-1.07882,-1.45004,-0.235885,0.12613,0.104525,0.819405,0.200599,0.905044,0.962062,0.314681,1.47279,0.224302,-1.2202,-0.648896
-0.770932,0.753848,-0.216656,-0.0225967,-0.566834,-1.06723,-1.30651,-0.0832065,0.112723,0.119485,0.28484,0.562985,1.02725,0.661691,0.303541,1.43763,0.0607602,-1.09482,-0.595699
-0.238338,0.733318,0.213859,0.0685619,-0.378778,-0.95908,-0.957653,-0.000233641,0.168695,-0.0508208,0.481599,0.687428,-0.449017,0.733424,0.575273,1.11488,0.217759,-1.02232,-0.525333
-0.544664,0.54145,-0.530208,0.540752,-0.553235,-0.779118,-1.22432,0.0548612,0.0381422,0.0961918,0.145065,0.411539,1.3914,0.0147714,-0.0440223,1.49787,0.178285,-0.915739,-0.579536
-0.456678,1.18059,-0.404272,0.318061,-0.301381,-0.778703,-0.89754,0.0537593,0.358535,0.122022,0.596194,0.541877,-0.483563,0.100669,0.517271,0.873408,0.0946531,-0.777382,-0.582018
-0.431062,0.839469,-0.475293,0.189749,-0.0535772,-0.925472,-0.874085,0.0530982,0.41323,0.236543,0.191206,0.523663,-0.295161,0.692588,0.520328,0.864318,-0.254137,-0.760761,-0.739564
-1.01468,1.11808,-1.03248,0.151913,-0.149785,-0.730352,-0.988771,0.0647563,0.243974,0.222389,-0.315553,0.775144,1.50325,0.147015,-0.0035938,1.00707,-0.854751,-0.549568,-0.740034
-0.374628,0.965798,-0.232628,-0.0857767,0.139596,-1.05741,-0.56212,-0.162036,0.41431,0.171061,0.343157,0.597489,-0.816087,0.860902,0.223533,0.751808,-0.963314,-0.0483933,-0.646046
-0.298189,0.806595,-0.0767226,-0.269753,0.0488846,-0.93413,-0.652608,-0.313767,0.43485,0.165454,0.460639,0.859241,-0.848096,0.971629,0.147541,0.731326,-1.25368,0.220125,-0.697281
-0.0282123,0.900097,0.427626,-0.316634,0.00771037,-0.90102,-0.824479,-0.390019,0.597725,0.512467,0.514998,0.985025,-1.02913,0.148384,0.0758228,1.22565,-1.62635,0.306837,-0.712002
0.514464,0.700909,0.783972,-0.0288432,0.35229,-1.05304,-0.853155,-0.545937,0.806524,0.339968,0.447433,0.5869,-1.57328,0.804837,-0.0176141,0.72022,-1.6181,0.458189,-0.647219
0.491207,0.957097,0.716266,0.249545,0.206782,-1.53753,-0.859842,-0.819692,1.01966,0.488356,0.717129,0.424176,-2.00581,1.06033,0.0790878,0.603963,-1.59571,0.74989,-0.695806
-0.104326,0.952523,1.11845,-0.60693,-0.348643,-1.00561,-1.24353,-0.542543,1.01471,0.775743,0.671432,0.602501,-1.20781,-0.137535,-0.194405,1.04642,-1.73442,0.719959,-0.583745
0.340159,0.811796,1.45739,-0.266695,-0.65193,-0.799421,-1.15313,-0.506489,1.32688,1.0383,0.90472,0.508044,-1.55845,-0.700907,0.102215,0.982893,-1.82611,0.834945,-0.710912
0.0894958,1.13612,0.971421,-0.251665,-0.937141,-0.813722,-1.11267,-0.896583,1.28184,1.06338,0.787602,0.116396,-0.69189,-0.0438459,-0.131745,0.53798,-1.65544,0.844817,-0.740855
0.0669706,1.41297,1.15013,-0.326264,-0.973696,-0.577608,-0.811318,-0.755298,1.34635,1.00548,0.539391,0.217507,-1.28825,-0.47428,0.0422284,0.672467,-1.58011,0.667957,-0.6242
0.645387,0.990582,1.03886,0.182819,-0.952825,0.0904863,-0.650443,-0.568306,1.62463,1.08448,-0.103206,-0.0600412,-1.62086,-1.10577,0.200549,0.548918,-1.61075,0.644021,-0.483973
0.902027,0.800608,0.811195,0.685884,-0.794619,-0.023449,-0.637559,-0.56868,1.60285,0.861779,-0.127356,-0.415474,-1.59608,-0.950858,0.45314,0.554951,-1.74204,0.565777,-0.152466
0.201674,1.15266,0.448086,0.386771,-0.932403,0.135657,-0.875189,-0.43394,1.34634,0.86767,-0.299722,-0.298408,0.064844,-1.29572,-0.138356,0.686295,-1.82285,0.31694,-0.281595
0.780131,1.04578,1.16326,0.197687,-0.254308,0.00852698,-0.375964,-0.627125,1.68737,0.716959,0.968913,-0.179525,-3.1556,-0.173605,0.427836,-0.0738315,-1.85414,0.302226,-0.161788
0.443758,1.12991,1.32003,-0.240245,-0.681615,0.178282,-0.596995,-0.347375,1.54589,0.304335,0.466515,0.299645,-1.93319,-0.897869,0.377804,-0.169622,-1.42662,0.242657,0.0228514
0.0677025,1.72931,1.74161,-0.950906,-0.85792,-0.0464076,-0.554075,-0.108594,1.44996,0.32003,1.0405,0.161136,-2.17949,-0.912253,0.514519,-0.120206,-1.31344,0.131297,0.143044
0.316861,1.42865,2.13579,-0.520976,-0.332084,-0.102366,-0.522108,0.241589,1.40447,0.0506134,1.035,0.247139,-2.5787,-0.857169,0.864099,-0.554248,-1.39766,-0.055897,0.146062
0.0533499,1.73951,2.5661,-0.844456,-0.129316,-0.382764,-0.490438,0.476161,1.27321,-0.182364,0.765107,0.198022,-2.50254,-1.3303,0.872838,-0.684265,-1.20633,0.0112379,0.274872
0.0566432,1.9284,2.75603,-0.647043,-0.149879,-0.633594,-0.493155,0.612708,0.847081,-0.457897,0.74453,0.092693,-1.85017,-1.09546,0.394722,-1.24982,-0.680201,0.27045,0.584197
0.0586762,1.77223,2.7635,-0.65303,-0.155328,-0.519299,-0.62962,0.886375,0.650794,-0.791953,0.45024,0.100247,-1.34849,-1.6278,0.406245,-1.11745,-0.427818,0.436516,0.787882
0.146662,2.06121,2.83318,-0.759219,-0.207305,-0.864507,-0.40254,1.04326,0.489033,-1.00461,0.535716,0.0297215,-2.06345,-0.999757,0.463463,-1.60134,-0.0543144,0.561333,1.00691
0.297345,2.1016,2.6536,-0.446768,-0.445491,-0.859335,-0.273695,1.10475,0.200787,-1.44735,0.477621,0.24691,-1.78604,-1.19822,0.364024,-1.78029,0.242194,0.806943,1.31888
0.622292,1.95761,2.16097,-0.0321941,-0.811487,-0.610359,0.143595,1.37718,-0.241115,-1.88744,0.060518,0.351709,-1.6345,-1.37217,0.247684,-2.01931,0.468498,1.03645,1.78545
0.883364,1.79867,2.23701,0.104576,-0.465557,-0.359474,0.698454,1.41654,-0.459393,-1.93431,0.293483,0.249416,-2.43267,-1.49944,0.207368,-2.0304,0.444435,1.31151,1.91376
1.23263,1.59184,2.27566,0.494945,-0.457739,-0.599654,1.01042,1.64364,-0.568587,-2.24915,0.229593,0.224549,-2.52439,-1.60861,0.203222,-2.21299,0.634521,1.44138,2.17287
1.06609,1.66056,2.08295,0.333677,-0.369491,-0.38365,1.38243,1.68534,-0.774189,-2.48681,0.361472,0.0220618,-2.84969,-1.45247,0.23552,-2.5397,0.381053,1.76523,2.20732
0.977775,1.60884,2.29062,-0.236894,-0.168263,0.239385,1.81607,1.7582,-0.983556,-2.82052,0.362058,-0.158346,-2.51927,-1.22937,0.0395235,-2.78767,0.522113,1.80225,2.43336
1.08942,0.8378,2.18029,0.129204,0.123842,0.526229,2.00615,2.07314,-1.20168,-2.82724,0.101873,-0.258627,-2.06422,-1.86757,-0.0032577,-2.9154,0.761689,1.64216,2.54966
1.09292,0.981705,2.33446,0.23201,0.353854,0.556213,2.32151,2.26178,-1.50152,-3.12019,0.543773,0.448249,-2.65855,-2.18892,-0.441137,-3.23977,0.619016,1.70814,2.78869
1.38961,1.1303,2.69894,0.43183,0.321587,0.211226,2.5439,2.28307,-1.62879,-3.16841,0.487294,0.701724,-2.86236,-1.97813,-0.676522,-3.63678,0.504686,1.76526,2.9765
1.07088,1.0127,2.04518,0.479297,0.165063,0.38809,2.50983,2.15545,-1.78331,-3.24085,0.48584,0.669409,-1.61086,-1.59472,-1.3708,-4.12852,0.698337,1.78251,3.24894
1.53842,0.698229,1.86627,1.0459,0.265061,0.674768,2.64747,2.05798,-1.77458,-3.28315,0.269453,0.455115,-1.85468,-1.60662,-1.38986,-4.08898,0.777596,1.81501,3.32782
2.00222,0.500678,1.81112,1.44203,0.506089,0.925819,2.81142,1.79035,-1.74887,-3.42744,0.257378,0.437607,-2.5508,-1.50696,-1.35825,-4.26642,0.822001,1.90747,3.55273
2.54742,0.0492506,1.77543,1.63329,0.515731,1.05801,2.88749,1.64642,-1.52145,-3.53608,-0.00615871,0.127885,-2.99375,-1.08528,-1.47218,-4.3959,0.860329,2.29904,3.67852
2.88229,0.0564097,1.7029,1.8865,0.580809,1.35633,2.96425,1.55163,-1.22545,-3.67615,-0.0388711,0.12199,-3.53397,-1.71726,-1.52859,-4.37725,0.913199,2.62497,3.64814
2.77092,0.238839,1.54599,2.26493,0.785899,1.65632,2.8346,1.6719,-1.17008,-3.62896,-0.334131,0.36364,-3.20184,-2.72672,-1.56965,-4.74221,1.07457,2.86398,3.64192
3.4048,0.186141,2.18264,2.22049,1.03176,1.27504,3.11632,1.37037,-0.85597,-3.4797,0.00708779,0.51205,-5.23924,-2.22305,-1.50185,-4.95843,1.25923,3.07027,3.70045
3.07786,0.0866194,1.58483,2.48258,0.922475,1.09261,2.55893,1.30858,-0.812751,-3.25602,-0.878752,0.667344,-3.22266,-2.12258,-1.70513,-4.7465,1.20766,2.84006,3.34331
3.66164,0.14606,1.7477,3.34962,1.18817,1.3191,2.84674,1.36171,-0.483064,-2.95769,-0.827805,0.583529,-4.29264,-3.17475,-1.39508,-4.44531,1.10899,2.42105,3.09743
3.37182,-0.105265,1.60914,2.98167,1.05351,1.35794,2.95253,1.33097,-0.343938,-2.5737,-0.29849,0.937391,-4.0724,-3.17148,-1.80396,-4.29176,1.10307,2.13277,2.943
3.23456,0.19444,1.19918,3.50634,0.94093,1.20199,2.74003,1.30512,-0.250212,-2.39705,-0.359331,1.02744,-3.64149,-3.10732,-2.05945,-4.34023,0.824916,1.75685,2.89136
3.07944,0.366019,0.61782,3.96063,0.964952,1.08971,2.58773,1.30397,-0.0266759,-2.07673,-0.590499,0.759118,-3.21791,-3.3843,-2.26401,-4.13717,0.666057,1.49366,2.98245
3.04545,0.167104,0.381149,3.99639,0.665053,0.921172,2.32268,1.12333,0.203187,-1.88403,-0.545287,0.572886,-3.08166,-3.27474,-2.19666,-4.06783,0.809598,1.50108,3.0894
2.8167,0.300591,0.409812,3.35561,0.872038,0.89564,2.24261,0.930318,0.448835,-1.63582,-0.257479,0.285332,-3.53312,-2.75178,-2.2416,-3.96051,0.814807,1.42723,3.08663
2.49058,0.172561,0.33782,2.53508,0.80208,0.703978,2.19976,0.756615,0.688789,-1.39735,-0.378494,-0.277035,-3.76578,-2.05455,-2.19085,-3.80707,1.01038,1.59437,3.1246
2.06004,0.495509,0.160551,2.0694,0.579033,0.606529,2.02375,0.77797,0.702751,-1.4453,-0.0339844,-0.146804,-3.49258,-1.945,-2.17838,-4.02747,0.906005,1.65649,3.16015
2.03178,1.1737,-0.0954072,2.87226,0.376597,0.269591,1.88119,0.78165,0.46378,-1.40072,0.268282,0.0256622,-3.08599,-1.95771,-2.41543,-4.13879,0.7055,1.49674,3.16796
1.67496,0.910563,0.378203,2.34132,0.132228,0.589683,1.59442,1.0058,0.281772,-1.03425,-0.0189812,-0.44823,-1.70664,-2.73863,-2.28152,-3.43102,0.82318,1.27902,2.95611
2.20731,0.776209,1.43278,1.77039,0.94048,0.731113,2.13998,1.13997,0.266947,-0.973117,0.918734,-0.436106,-4.87328,-2.83107,-1.59357,-3.103,0.837041,1.12044,2.84744
2.10789,0.662192,1.13717,1.98244,0.974855,0.354233,1.84086,1.09106,-0.0929448,-0.968032,0.291201,-0.132155,-3.8656,-2.2554,-1.49929,-2.99234,0.744448,0.872862,2.61186
1.92338,0.671631,1.66355,1.79566,0.995253,0.259384,1.76996,0.830531,-0.311321,-1.09242,0.191267,0.2617,-3.18226,-1.93364,-1.65964,-2.71515,0.722462,0.59248,2.38147
1.86317,0.473984,1.58989,2.26714,0.732287,0.384079,1.56279,0.780967,-0.285392,-0.935018,0.0983796,0.0629898,-2.39027,-2.26657,-1.50964,-2.36693,0.82904,0.442239,2.01108
1.79502,0.779114,1.45467,2.45303,0.921528,0.171035,1.23308,0.597722,-0.233206,-0.868921,0.0192237,0.00679545,-2.14758,-2.37135,-1.20334,-2.19086,0.65356,0.472819,1.68187
1.53627,0.6646,1.36879,2.12399,1.23014,0.581634,1.10044,0.600234,-0.142633,-0.916894,0.311576,0.277513,-2.39366,-2.84336,-0.955216,-2.25852,0.904951,0.503274,1.3672
1.55635,0.883178,1.31236,2.25318,1.45345,0.389169,1.00876,0.362423,-0.0851016,-0.795604,0.376778,0.162212,-2.87157,-2.52132,-0.579948,-2.2081,1.04396,0.41585,1.23163
1.43035,0.805696,1.05925,2.05665,1.34545,0.415972,0.85674,0.243572,-0.237406,-0.859331,0.235792,0.151852,-2.48644,-1.90557,-0.745199,-2.1386,1.1169,0.554396,1.05526
1.74839,1.01651,1.0119,2.44536,1.13451,0.580555,0.793103,0.172037,-0.316459,-0.780609,0.61154,0.134574,-2.82166,-1.99542,-0.873511,-2.07585,0.955433,0.681078,0.892466
1.69224,1.10354,1.16801,2.80147,0.990467,0.936689,0.492155,0.173734,-0.439114,-0.566752,0.828916,0.0513415,-2.2288,-2.54596,-1.04366,-1.70286,0.825878,0.827484,0.539031
1.33871,1.30399,1.2017,2.13971,0.49775,1.05491,0.272588,0.123289,-0.482868,-0.362888,1.01832,0.193575,-2.03644,-2.68406,-1.068,-1.27985,0.873725,0.996736,0.278175
1.30264,0.636766,0.884628,2.02106,0.283445,0.836806,-0.0333481,-0.147623,-0.408603,-0.045451,1.04108,-0.0224842,-1.73599,-1.66289,-0.982105,-0.652156,0.828947,1.04958,-0.255223
1.21774,0.668067,0.521016,1.89421,0.0341254,0.696122,-0.471462,-0.278154,-0.403596,0.240277,0.872351,-0.110747,-1.00272,-0.976837,-0.959586,-0.264573,0.590953,0.908997,-0.793046
0.798549,0.660378,0.782298,1.13419,0.0914092,0.887951,-0.423469,-0.206795,-0.26279,0.382299,1.31631,0.231308,-1.48079,-0.75731,-0.572218,0.0920761,0.469025,0.555905,-1.22614
0.49999,0.653203,0.511104,0.923638,0.100743,1.0046,-0.677868,-0.161,-0.281389,0.430864,0.850119,0.4294,-0.609144,-0.738413,-0.357479,0.310559,0.29708,0.270534,-1.54788
0.587244,0.64362,0.870263,1.16094,0.413175,0.879569,-0.39857,-0.151634,-0.237286,0.51191,1.71463,0.580193,-1.69894,-0.924507,-0.27403,0.822395,0.244551,-0.0304306,-2.01414
0.844657,0.396902,0.704546,1.47127,0.118914,1.18575,-0.495702,-0.132373,-0.0851016,0.663273,1.677,0.484147,-1.64403,-1.09346,0.185137,1.07904,0.144113,0.0955601,-2.37634
0.971188,0.550086,0.356069,1.70242,-0.0699,1.17941,-0.500033,-0.165033,-0.0620521,0.611139,1.43113,0.0955874,-1.63018,-0.909566,0.452435,1.16937,0.124856,0.296357,-2.5135
0.761062,0.519346,-0.289586,1.70034,-0.232038,1.08506,-0.762943,-0.295256,0.00522045,0.529465,1.09413,-0.0304439,-0.900376,-0.407634,0.550978,0.926537,-0.0284528,0.4414,-2.64155
0.549594,0.663685,-0.777594,1.6262,-0.543096,1.04067,-0.834604,-0.379308,0.120927,0.609906,1.11802,-0.0541112,-0.762394,-0.354899,0.667238,1.0192,-0.124953,0.678542,-2.57763
0.494663,0.463245,-0.977164,1.63651,-0.462192,0.788869,-0.747384,-0.382989,0.182527,0.640928,1.12545,0.129685,-1.12727,-0.381842,0.878119,0.926453,-0.0994325,0.854711,-2.43265
0.51849,0.175129,-1.20878,1.83688,-0.477307,0.925708,-0.718389,-0.257042,0.268453,0.690169,1.00278,0.0671726,-1.0217,-0.901655,0.863859,0.87823,0.0311776,1.0685,-2.29528
0.855716,-0.0572859,-0.938824,1.95609,-0.529758,0.736646,-0.903505,-0.0408716,0.30168,0.807725,0.633449,-0.311327,-0.427736,-1.49094,0.83393,1.08593,-0.0385618,1.40087,-2.31441
0.731503,0.336708,-0.725726,1.70825,-0.498771,0.356086,-0.642504,-0.0559896,0.330816,0.700233,1.1704,-0.353738,-1.49845,-1.51964,0.850431,0.974995,-0.159125,1.72229,-2.06009
0.251604,0.264811,-0.833949,0.338167,-0.455322,0.347539,-0.330539,-0.276413,0.372803,0.829536,0.954112,-0.544453,-1.38217,-1.00812,0.704513,1.14851,0.0118279,1.96431,-1.97321
0.777813,-0.315882,-0.663846,1.01119,-0.408225,-0.0929333,-0.300738,-0.375297,0.477764,0.980437,0.935999,-0.898262,-1.77367,-0.907707,0.792941,1.3569,0.248303,1.96479,-1.77038
0.835427,-0.203567,-0.259717,0.447511,-0.394864,-0.319089,-0.110018,-0.376928,0.576999,1.14799,0.854723,-1.25357,-2.30336,-0.938029,0.921813,1.65674,0.51005,1.99439,-1.79028
0.719833,-0.268978,0.266397,0.0078871,-0.468707,-0.0866819,0.0296519,-0.224293,0.576126,1.29835,0.560876,-1.15154,-2.35333,-1.47186,0.962353,1.97205,0.488034,1.75306,-1.754
0.792207,-0.322864,0.38192,0.0250322,-0.477757,-1.14231,0.165374,-0.436519,0.63705,1.38259,0.843374,-1.30267,-2.28806,-0.183763,0.832105,1.90399,0.339253,1.4972,-1.54143
0.537884,-0.351549,0.515223,-0.421131,-0.511895,-1.66258,0.10422,-0.681206,0.698104,1.42089,0.747458,-0.91171,-2.29547,0.271518,0.813923,1.98077,0.198037,1.31684,-1.45457
0.398057,-0.0480239,0.548909,-0.711199,-0.65918,-1.83629,0.122878,-0.795076,0.594605,1.55379,0.507123,-1.04438,-1.63564,0.581574,0.443745,2.07554,-0.20477,1.30682,-1.3167
0.407572,-0.198141,0.415605,-0.625376,-0.257411,-2.13334,0.404426,-1.08056,0.635664,1.4577,0.167338,-0.785838,-1.86523,0.813372,0.549329,2.16483,-0.455199,1.24926,-1.14608
0.611477,-0.243937,0.563274,-0.787393,0.0315431,-1.82376,0.473242,-1.16791,0.843798,1.59789,0.303377,-0.418492,-2.90926,-0.393065,0.687212,2.77923,-0.517217,1.30063,-0.991383
0.0679058,-0.0191626,0.082364,-0.660219,-0.0832141,-1.85164,0.0923548,-1.27508,0.751076,1.62361,-0.132324,-0.400172,-1.50882,-0.709273,0.620631,2.88408,-0.807152,1.38338,-1.02268
-0.0524857,-0.0574143,-0.258043,-0.414006,-0.0572966,-2.44945,-0.0972397,-1.5259,0.858732,1.63575,0.167096,-0.529575,-1.37359,0.414545,0.90536,2.78514,-1.08276,1.16968,-1.25928
-0.158687,0.478542,0.197686,-0.677527,0.0961947,-2.48762,-0.0483977,-1.73883,0.95033,1.70355,0.980605,-0.470927,-2.62441,0.716387,1.17772,2.76713,-1.1721,0.94574,-1.45923
-0.961907,1.06538,-0.502449,-1.01929,0.139856,-2.37222,-0.302181,-1.76076,0.921717,1.77946,1.02802,-0.636086,-1.91596,0.377478,1.22837,3.30758,-1.23207,0.705538,-1.53809
-0.981586,0.96331,-0.0997602,-1.17581,-0.107118,-1.72833,-0.374308,-1.38223,0.986764,1.89131,1.0828,-0.626503,-1.52103,-0.978815,1.50151,3.60272,-1.21064,0.569487,-1.76647
-1.51125,0.816419,0.109554,-2.14862,-0.0476309,-2.04018,-0.558511,-1.76479,1.03575,1.83921,1.20901,-0.669937,-1.26272,0.801828,1.60175,3.06176,-1.03312,0.342741,-2.0369
-1.52707,0.531546,0.215466,-1.7578,-0.239454,-1.9934,-0.668783,-1.77039,1.12338,2.00385,1.41378,-0.706347,-0.876168,0.69389,1.83352,3.20352,-0.944832,0.041106,-2.42618
-1.23619,0.69627,0.814611,-1.48946,0.301142,-1.59819,-0.671394,-1.71613,1.2883,2.14688,1.67181,-0.729926,-2.15296,-0.16414,2.17239,3.40559,-0.881202,-0.146025,-2.69477
-0.7739,0.579605,0.77694,-1.32641,0.181931,-1.7797,-0.665811,-1.92714,1.43531,2.19289,1.1687,-1.19505,-1.98057,0.440946,2.52423,3.3651,-0.849324,-0.0494622,-2.93898
-0.451961,0.234859,0.189482,-0.387622,-0.191172,-1.69406,-0.847743,-2.04884,1.42724,2.2681,0.703256,-1.54114,-0.887154,0.287118,2.32169,3.28416,-0.572569,0.112915,-3.06177
-0.399308,-0.131735,0.369095,-0.661326,-0.0614188,-1.5991,-0.790007,-1.89089,1.49172,2.36293,0.80414,-1.28396,-1.49139,0.317593,2.52332,3.21671,-0.487232,0.218365,-3.22716
-0.580241,0.146509,0.145818,-0.57342,-0.224694,-1.67312,-1.12778,-1.8315,1.47784,2.40391,1.01427,-1.19416,-1.05525,0.40846,2.4225,3.15397,-0.540536,0.0883498,-3.30361
-1.18212,0.504081,0.0122132,-0.902268,-0.451958,-1.41825,-1.40903,-1.90477,1.43817,2.45129,1.16268,-1.16393,-0.276894,0.299119,2.33649,3.21502,-0.693504,0.103504,-3.29535
-0.869449,0.0798134,0.171367,-0.662041,-0.85484,-1.1126,-1.5998,-1.81105,1.39818,2.50485,1.24125,-1.18428,-0.687737,0.0813327,2.50033,3.48749,-0.660789,0.18967,-3.24393
-1.02042,0.228663,0.281599,-1.30318,-1.15059,-0.913301,-1.729,-1.5289,1.33879,2.42122,1.5078,-0.965681,-0.736341,-0.348713,2.53098,3.49679,-0.411042,0.265651,-3.05052
-0.526693,0.0474206,0.247344,-0.465637,-1.88863,-1.5214,-2.08499,-1.47803,1.38508,2.52018,1.43393,-0.709859,-0.398438,-0.221574,2.42593,3.48456,-0.180149,0.32132,-2.98265
-0.249926,0.257347,0.365177,-0.42985,-2.06621,-1.0227,-2.15572,-1.33342,1.37334,2.38596,1.35857,-0.970905,-0.578823,-0.475971,2.32061,3.39974,-0.0104055,0.362423,-2.8888
-0.174544,0.0132462,0.871435,-0.759609,-1.87467,-0.778924,-2.27068,-1.26019,1.45547,2.29826,0.947064,-1.25316,-0.959403,-0.392236,2.59521,3.45605,0.489987,0.407508,-2.90078
0.495192,-0.664112,0.615175,-0.0954716,-1.79751,-0.713727,-2.36741,-1.21219,1.35809,2.19004,0.5843,-1.52639,-0.782868,-0.0137428,2.54283,3.39356,1.0013,0.538005,-3.04284
-0.132665,-0.568555,0.286153,-0.960959,-1.57349,-0.64925,-2.45635,-1.30968,1.3725,1.97499,0.609077,-1.62182,-0.639091,0.718888,2.64729,3.23148,1.35151,0.691537,-3.1893
0.10641,-0.659071,0.671296,-0.507638,-1.33896,-0.699399,-2.52304,-1.13633,1.32378,1.94159,0.111747,-1.33396,-0.201429,-0.212007,2.62556,3.41591,1.26844,0.483677,-3.18593
0.36553,-0.555617,0.8343,-0.166883,-0.658232,-1.10018,-2.09327,-1.19469,0.912641,1.44418,0.520329,-1.36601,-0.737494,0.565855,2.37074,3.16797,1.06787,0.382503,-2.97226
0.314666,-0.769171,0.217676,0.244861,-0.537576,-0.756298,-2.02154,-1.10528,0.8981,1.33376,0.530022,-1.36882,-0.368405,-0.248567,2.41661,3.36629,0.932084,0.536118,-2.91183
0.24583,-0.824502,-0.138033,0.188936,-0.501329,-0.388131,-1.86644,-1.15756,0.725605,1.09631,0.637226,-0.912504,-0.279475,-0.278366,2.21074,3.5227,0.638645,0.602017,-2.93648
1.37225,-1.32685,-0.303583,2.06377,-0.728641,-0.647811,-1.58763,-0.953264,0.632806,0.897198,0.321248,-0.782767,-0.673492,-0.663519,2.16685,3.56066,0.574518,0.712895,-2.67594
0.973627,-1.18657,-0.248667,1.84632,-0.638853,-0.960131,-1.6328,-0.993153,0.667604,0.890228,0.332071,-0.574421,-0.475633,0.22507,2.06929,2.74898,0.429303,0.680072,-2.50305
0.779236,-0.616502,-0.1159,0.990982,-0.601517,-0.968899,-1.59668,-1.13933,0.724437,0.669152,0.015589,-0.522709,-0.616959,0.803687,2.00373,2.5927,0.456777,0.655276,-2.42989
1.00408,-0.38452,-0.0618219,1.06138,-0.993572,-0.994375,-1.45841,-1.21098,0.601543,0.687609,-0.069544,-0.567273,-0.354088,0.95858,1.82345,2.39375,0.405581,0.55209,-2.23963
1.13399,-0.25726,0.324426,0.750463,-1.3355,-0.786725,-1.11186,-1.13157,0.644522,0.901004,-0.155909,-0.455096,-1.11555,0.354288,1.99174,2.53845,0.836917,0.539807,-2.18716
0.858765,-0.360811,-0.271738,1.75734,-1.11515,-0.672513,-0.99792,-1.15983,0.585878,0.730876,0.187995,-0.273717,-0.790524,-0.587357,1.80578,2.39406,1.06127,0.19359,-1.87096
0.692023,-0.158365,0.453008,0.790837,-0.687845,-0.588894,-0.794082,-1.35473,0.492763,0.6958,-0.11629,-0.213623,-0.364267,-0.316734,1.37707,1.98109,1.05565,-0.0766683,-1.65777
0.733007,-0.180677,0.153921,1.80448,-0.14038,-0.408821,-0.725096,-1.45681,0.218645,0.427913,-0.37072,-0.0513756,-0.144045,-0.826897,1.46573,1.88764,0.926378,-0.302869,-1.40041
0.270022,0.137103,-0.221679,0.90799,0.436865,-0.652873,-0.521365,-1.43422,0.236196,0.210962,0.692453,-0.251091,-1.581,0.071242,1.32988,1.73758,1.31867,-0.132149,-1.12998
0.999974,-0.311211,0.243962,1.83682,0.305643,-1.40799,-0.655665,-1.47407,-0.000757391,0.0151701,0.243607,-0.780049,-0.644844,1.38078,1.05622,0.910256,1.2111,-0.115172,-0.908293
1.28654,-0.225413,0.523226,1.94073,0.343311,-1.27812,-0.69107,-0.933078,-0.271876,-0.0192775,-0.092887,-0.790073,-0.456731,0.60091,0.95904,1.2475,1.21864,-0.0253373,-0.855381
1.0497,-0.0113935,0.869459,1.31134,0.419832,-0.781718,-0.471547,-0.590145,-0.57331,-0.348888,-0.235186,-1.03056,-0.603925,0.527554,0.874886,1.16271,1.29784,-0.0462554,-0.673625
0.253311,-0.0846383,-0.241636,0.647494,-0.0892315,-0.695444,-0.516165,-0.306208,-0.709797,-0.466835,-0.274723,-0.886631,0.458487,0.898256,0.787307,0.904055,1.62148,0.0619612,-0.425427
0.409035,0.170378,0.381786,0.527934,-0.480529,-0.154258,-0.361657,0.260299,-0.800533,-0.403985,0.134767,-0.363551,-0.319211,-1.13817,0.631419,1.24669,1.36019,0.263953,0.0350233
-0.326487,0.280462,-0.339043,-0.547328,-0.748541,-0.386886,-0.379721,0.265588,-0.955706,-0.473947,0.48374,-0.556966,0.175489,0.349319,0.491488,0.812247,1.38069,0.522893,0.22253
-0.288796,0.314813,-0.320258,-0.515478,-0.390647,0.505179,-0.191039,0.790488,-0.772368,-0.375619,0.517967,0.0482176,-0.932384,-1.94311,0.740685,0.597293,1.40097,0.754941,0.444573
-0.869977,0.323192,-0.238019,-1.65171,-0.74584,0.192638,-0.474816,0.714567,-0.804188,-0.360185,0.418638,-0.106793,0.0553281,-0.359243,0.429132,-0.194591,1.51933,0.793989,0.645727
-0.302214,0.227956,-0.0638644,-0.717218,-0.981869,0.562382,-0.465858,0.664254,-0.62698,-0.077587,0.528447,-0.69551,-0.266426,-0.207866,0.512934,-0.0252052,0.772418,0.474517,0.501291
0.00537214,0.00125539,0.329147,-0.944529,-0.818262,0.317223,-0.530492,0.612796,-0.313176,0.194864,0.448301,-0.689121,-0.865743,0.272228,0.596528,-0.147544,0.554424,0.403987,0.509372
-0.646271,0.339389,-0.282554,-1.06494,-0.781968,-0.0773325,-0.734139,0.602063,-0.296857,0.660203,0.276157,-0.582098,-0.108649,-0.563457,0.506244,0.0128524,0.808481,0.508032,0.502197
-0.00381681,-0.369913,-0.397909,-0.55364,-0.661857,-0.163164,-0.47957,0.457472,0.0593919,1.06632,0.500015,-1.09743,-0.762135,-0.374641,0.495361,0.17093,0.610117,0.388099,0.540959
-0.341084,-0.562294,-0.276929,-0.92361,-0.224102,-0.179429,-0.444865,0.42803,0.172993,1.23771,0.964087,-1.22872,-0.989378,-0.525292,0.446578,0.00351025,0.426574,0.265902,0.605791
-0.539012,-0.388131,-0.761287,-1.30367,-0.282499,-0.315631,-0.302754,0.433429,0.352851,1.31671,0.912535,-1.32415,-1.05019,-0.29733,0.447458,0.0625541,0.620536,0.295036,0.571606
-0.302539,-0.413686,-0.146036,-1.1788,0.0645204,0.197174,-0.0960722,0.579342,0.601564,1.4659,0.878752,-1.34323,-1.69811,-1.30831,0.419577,0.475878,0.385983,0.320796,0.354089
-0.460947,-0.361325,0.13671,-1.48332,0.00247475,0.192279,0.103966,0.670138,0.604182,1.43736,0.737382,-1.51758,-1.50252,-1.26536,0.0678843,0.685405,0.133135,0.399857,0.325001
-0.389834,-0.849447,0.0156956,-1.45085,-0.192475,0.171588,-0.0509873,0.584786,0.875083,1.38969,0.419486,-1.75007,-0.918787,-0.763293,0.313032,0.544298,0.00153294,0.388476,0.131342
0.164268,-0.609503,0.203412,-1.10554,0.0180868,0.378575,0.104454,0.414124,1.02751,1.31229,-0.0836386,-1.64702,-1.63019,-0.690833,0.515751,0.483876,-0.049632,0.25144,-0.0597024
0.584601,-0.81898,0.567828,-0.8969,0.0071181,0.863443,0.354926,0.409364,1.19223,1.43226,-0.0671815,-1.66597,-2.07712,-1.11493,0.642014,0.612566,-0.0173206,0.0397016,-0.165862
0.460469,-0.861983,0.532936,-0.635462,-0.341513,0.843915,0.220647,0.220278,1.30835,1.34318,-0.0963803,-1.53389,-1.39154,-0.77095,0.737884,0.364881,-0.0842691,-0.213642,-0.381937
0.708612,-0.621301,0.506383,-0.228566,0.106168,0.557098,0.290419,0.120027,1.46942,1.31505,-0.971013,-1.14415,-1.52291,-0.813189,0.999741,0.453212,-0.080548,-0.534246,-0.642257
0.958218,-0.742252,0.863465,-0.106891,0.410403,0.709151,0.551652,0.108215,1.51432,1.44075,-0.383704,-1.20419,-2.46542,-1.25774,1.04702,0.563923,-0.0372594,-0.736112,-0.568622
0.972489,-1.14084,0.542982,0.352123,0.482186,0.61834,0.537409,0.0647122,1.5778,1.43163,-0.76232,-1.1738,-1.78252,-1.50956,1.06115,0.792907,-0.0218479,-0.758057,-0.646012
0.911948,-0.863926,0.511774,0.326064,0.625869,0.421007,0.668971,-0.0401003,1.79384,1.56357,-0.775365,-1.19545,-2.17522,-1.16624,1.22114,0.930099,-0.0485467,-1.09906,-0.866027
0.321456,-0.466866,0.438609,0.471456,0.351082,0.612503,0.446921,0.000427498,1.65641,1.58961,-0.417305,-0.541205,-1.54678,-2.40175,1.13978,1.07176,-0.162474,-1.23469,-1.04597
0.395984,-0.157594,0.756414,0.366015,0.517082,0.0759643,0.385195,-0.213693,1.59663,1.41092,-0.44291,-0.686086,-1.35974,-1.34274,1.0402,0.937862,-0.729443,-1.17799,-1.05001
0.643028,-0.212443,0.62214,0.540785,0.654653,-0.526684,0.239539,-0.630298,1.62811,1.06547,-0.456156,-1.07173,-1.6005,0.079203,1.14095,0.498141,-0.706187,-0.976649,-0.727241
0.800786,-0.246811,0.899696,0.484567,0.750908,-0.560624,0.350829,-0.777886,1.58217,1.02111,-0.270503,-1.10064,-1.86017,0.490453,1.14374,0.0938403,-0.682527,-0.845188,-0.63327
0.142515,-0.153854,0.235256,0.446438,0.730416,0.046948,0.302072,-0.749105,1.29303,0.883175,-0.0750971,-0.887231,-0.716602,-0.351316,0.510085,0.384792,-0.673689,-1.00583,-0.624351
0.0924639,0.0231502,0.671564,-0.243661,0.972225,0.072479,0.3486,-0.819957,1.47853,0.559361,0.240255,-0.870041,-1.51759,0.762682,0.709843,-0.0910204,-0.755274,-1.19023,-0.609966
-0.0287815,-0.00100792,-0.0123982,0.55279,1.04737,0.244087,0.1956,-0.412013,1.49183,0.381884,-0.0296632,-0.981724,-1.04731,0.339955,1.03745,-0.0824344,-1.05212,-1.39518,-0.579285
0.0427378,0.0205016,0.0665256,0.410944,0.868247,0.632917,0.539405,0.044261,1.33094,0.261412,0.119299,-0.754017,-1.3523,-0.70809,1.14457,0.478046,-0.930134,-1.5027,-0.603528
-0.232565,0.0137117,-0.217426,0.238419,0.833825,0.709593,0.204048,-0.0247178,1.42477,0.197401,-0.299036,-0.709312,-0.418076,0.00865275,1.28769,-0.0644221,-0.913761,-1.78325,-0.63089
-0.204673,0.23664,-0.00215184,0.585811,0.658965,0.304969,0.233489,0.113658,1.44141,0.219271,0.182927,-0.729343,-0.817544,-0.501831,1.50062,0.386691,-1.0071,-1.82913,-0.684707
-0.606913,0.34674,-0.0320873,0.15637,0.405215,0.204339,-0.00804622,0.272618,1.58829,0.366071,0.136645,-0.785414,-0.5141,-0.648746,1.60503,0.660436,-0.696078,-1.86248,-0.821062
-0.384304,0.167104,0.38721,0.0206727,0.35807,0.0377093,-0.179089,0.418046,1.4984,0.245765,-0.216104,-0.778284,-0.477421,-0.432261,1.61451,0.44639,-0.373118,-1.6699,-0.916341
-0.169584,0.767894,0.88292,-0.266044,0.0481028,-0.308716,-0.351957,0.412846,1.4783,0.147033,-0.00599717,-0.809858,-1.08139,-0.0271802,1.66471,0.25921,-0.285859,-1.35406,-0.89089
-0.465623,0.927883,0.632018,-0.218741,-0.134149,-0.296545,-0.545287,0.550803,1.40061,0.173835,-0.359473,-0.960157,-0.0267397,-0.336036,1.22139,0.712726,-0.0861296,-1.37237,-0.918889
-1.73541,1.31536,0.730363,-2.61473,-0.223557,0.210147,-0.698967,0.807876,1.35146,-0.137331,-0.00959149,-0.457584,0.0780222,-0.226492,1.30828,0.619254,0.401984,-1.17105,-1.02664
-1.75887,1.51249,0.459772,-2.00727,-0.0707292,-0.255524,-0.816731,0.873945,1.11643,-0.0943129,0.373749,-0.559207,0.0737256,0.0953955,1.0305,0.346281,0.448094,-1.14035,-0.883111
-1.50401,1.62088,0.901605,-1.83367,0.0974266,-0.243934,-0.971026,1.37511,1.11428,0.083354,0.583654,-0.442636,-0.50594,-1.08172,0.987433,0.596469,0.133911,-1.11536,-0.720384
-1.42184,1.45082,0.515959,-1.64937,0.0570105,-0.144881,-1.17682,1.42765,0.717576,-0.0967904,0.591771,-0.390783,-0.0788756,-0.275915,0.659267,0.610365,-0.118131,-1.08405,-0.607032
-1.21534,1.18552,0.504842,-1.24481,-0.162625,-0.468458,-1.63516,1.18228,0.62949,-0.124469,0.637488,-0.416321,0.485752,0.64511,0.439599,0.642609,-0.305426,-1.0887,-0.535309
-1.10474,1.44394,0.565182,-0.673916,0.111286,-0.492855,-1.71412,1.35807,0.380668,-0.345913,0.686375,-0.40732,0.557568,0.0424405,0.422586,0.525445,-0.484379,-1.12987,-0.407957
-0.305101,1.6885,1.47182,-0.436682,-0.0945145,-0.240726,-1.18384,1.57372,0.435439,-0.298035,0.391458,-0.478887,-0.785406,-0.404474,0.661108,0.496848,-0.503511,-1.10052,-0.226419
-0.64562,1.50893,1.22406,-0.491957,-0.157721,-0.237987,-1.30683,1.38569,-0.0221707,-0.359995,0.803493,-0.512208,0.612011,-0.0947049,-0.143093,0.318809,-0.476751,-0.978116,0.13161
-0.406626,1.27465,1.21737,-0.279123,-0.376196,-0.189193,-1.12125,1.4637,-0.192714,-0.407387,0.299803,-0.270346,0.772354,-0.688433,-0.448083,0.179634,-0.378452,-0.591593,0.320491
-0.331651,1.45636,1.19406,-0.248574,-0.445396,-0.320251,-0.997113,1.4624,-0.198037,-0.44276,0.215478,-0.302591,0.779016,-0.881761,-0.492145,0.256808,-0.514303,-0.314921,0.48067
-0.873921,1.49813,1.00655,-0.703554,-0.229693,-0.151132,-0.718792,1.48173,-0.548733,-0.343269,0.559301,0.187715,0.917242,-2.21331,-0.684797,0.840693,-0.818377,-0.103057,0.582889
-0.631918,1.52506,1.08219,-0.833753,-0.203515,-0.183882,-0.329499,1.3527,-0.606177,-0.362888,0.383482,0.231802,0.0379254,-2.16644,-0.751345,0.947742,-0.562553,0.400717,0.639574
-0.518764,1.3265,0.893133,-0.77939,-0.0382257,-0.388518,-0.547665,1.21679,-0.618166,-0.611927,0.29524,-0.0282025,0.479811,-1.24557,-0.72617,0.375046,-0.569685,0.660139,0.593619
-0.0250408,1.25319,1.10891,-0.645482,-0.0620347,-0.525301,-0.307742,0.924897,-0.722014,-0.653653,0.700752,-0.533704,-0.113075,0.193006,-0.811124,0.000519415,-0.68969,0.696463,0.711532
-0.587884,1.1362,0.710406,-1.15242,-0.139005,-0.60881,0.0238996,0.981336,-0.921312,-0.689132,0.660104,-0.457337,0.363717,0.754924,-1.16571,-0.15986,-0.479821,0.567244,0.755726
-0.57341,0.722611,0.35915,-0.951752,0.107211,-0.463977,0.34669,0.929195,-0.769161,-0.725879,0.949568,-0.644769,-0.0323484,0.429115,-0.984938,0.234914,-0.488069,0.524444,0.721658
-0.828952,1.18593,0.269076,-1.11566,0.135189,-0.185597,0.564494,1.05928,-0.894793,-0.779424,0.694068,-0.509402,0.321212,-0.26317,-1.3628,0.453447,-0.390421,0.371205,0.75083
-0.901081,1.08026,0.647756,-1.81545,0.279631,0.0673894,0.89119,1.01977,-0.965851,-0.688302,0.856479,-0.66323,-0.0622659,0.0482042,-1.35094,0.607341,-0.240121,0.292144,0.636908
-0.497906,0.540808,0.78424,-1.94682,0.73558,0.0215276,1.25202,1.15143,-1.00825,-0.732755,-0.528648,-0.675779,-0.132396,0.35515,-1.10677,0.660184,0.063272,0.199585,0.375164
-0.921004,0.554757,0.246909,-1.52678,0.70355,0.0905416,1.15686,1.33143,-0.998795,-0.697074,-0.146438,-0.322693,0.948198,-0.125653,-1.17713,0.78459,-0.313209,-0.022864,0.0224994
-1.18382,0.933822,0.0127154,-1.686,0.907976,0.287792,1.40487,1.30937,-0.788218,-0.429365,0.872957,-0.0571468,-0.7023,-0.936863,-0.666919,1.0189,-0.485061,-0.0140398,-0.182142
-0.567514,0.49156,-0.0269306,-0.891597,0.704095,0.0750238,1.10821,1.14213,-0.786189,-0.438267,0.125478,-0.246467,0.385503,0.106636,-0.828009,0.895318,-0.827277,-0.0446414,-0.336972
-0.932836,0.640329,-0.150121,-1.15099,0.381737,0.196206,1.17692,1.14821,-0.609559,-0.494834,0.157323,-0.0228725,0.377082,-0.410609,-0.481694,0.891588,-0.854441,-0.0164922,-0.527798
-0.879654,0.628371,-0.281483,-1.42131,0.205645,-0.0677895,1.30772,0.70379,-0.406956,-0.378488,0.0489677,-0.0763842,-0.250956,0.197114,-0.170926,1.02223,-0.869976,0.154018,-0.381334
-0.523074,0.439007,-0.377249,-0.719495,0.426844,-0.646373,1.60805,0.649313,-0.247027,-0.17997,0.179696,-0.012989,-0.731943,-0.0968008,-0.0166058,1.17463,-0.650184,0.0338957,-0.47839
-0.510266,0.516906,-0.367639,-0.225573,0.381619,-1.23101,1.55708,0.628641,-0.131714,-0.360671,-0.101832,-0.152787,-0.299126,0.186414,0.112458,1.04185,-0.532753,-0.165266,-0.460886
-0.502338,0.433003,-0.285568,-0.550745,0.571073,-1.8439,1.40706,0.415997,-0.00539349,-0.397561,0.0363876,-0.386512,-0.414947,0.682548,0.0422604,0.771753,-0.346141,0.180343,-0.252054
-0.470664,0.438525,-0.198708,-0.781992,0.273969,-1.73898,1.13687,0.206548,0.161168,-0.369858,-0.913585,-0.0821377,-0.0125812,0.263523,0.353141,0.737291,-0.0281737,0.222745,-0.0104618
-1.10303,0.700444,0.275136,-1.75165,0.0991087,-1.30241,1.00836,0.271142,0.104477,-0.332518,-0.442183,-0.072272,-0.192303,-0.175447,0.214026,1.25852,0.0998626,-0.0571546,0.102203
-1.17756,0.53283,-0.0265958,-1.21866,0.402253,-1.2706,0.657169,-0.00140165,0.000191646,-0.453286,0.108658,0.128997,-0.266181,0.170374,0.301701,1.05825,-0.0215068,-0.323263,0.114978
-1.16963,0.363001,-0.166027,-0.970198,0.125453,-1.25287,0.336522,-0.161375,-0.0972646,-0.431273,0.32357,0.624615,0.550705,-0.125484,0.227886,1.04788,0.0495039,-0.423012,0.14286
-0.649727,0.382745,0.225277,-0.505002,-0.61258,-1.31007,0.386681,-0.0736861,-0.223356,-0.297513,0.5633,0.468404,0.468291,0.41703,-0.15849,0.972358,-0.0389029,-0.541184,0.317188
-0.328276,0.0729271,0.332965,-0.613794,-0.332344,-1.12966,0.452482,-0.0843304,-0.347167,-0.338623,0.904579,0.734198,-0.484212,0.727018,-0.0114842,1.10221,0.165292,-0.755039,0.232103
-0.54812,0.487564,0.823484,-0.957217,-0.778746,-1.28233,-0.00991415,-0.295762,-0.707506,-0.253594,0.926528,0.724597,0.694569,1.67106,-0.730539,1.06299,0.167276,-1.04108,0.250662
-0.629479,0.878475,1.11601,-0.383685,-1.47193,-1.61096,-0.324681,-0.244414,-0.778695,-0.242499,1.51008,0.849605,0.950591,1.80655,-1.12711,0.980372,0.328678,-1.17357,0.400731
-0.876645,0.711712,1.34304,-0.530574,-1.42107,-2.15677,-0.570334,-0.351915,-1.11627,-0.0306928,1.45316,1.0481,2.14057,1.89894,-1.53445,1.19385,0.267343,-1.63014,0.447138
-1.35744,0.475942,1.07275,-1.19328,-1.69453,-2.31178,-0.625205,-0.316632,-1.25851,0.0467372,1.90172,0.719126,2.1917,2.91722,-1.73376,1.0824,0.474235,-1.47684,0.614358
-1.47344,0.622239,1.10934,-0.959462,-2.07917,-2.10626,-0.730573,-0.0564965,-1.43189,0.3543,2.37625,1.26926,2.56044,1.23422,-2.17574,1.23251,0.412651,-1.39713,0.926182
-1.5143,0.896582,1.52188,-1.5015,-2.30582,-2.01454,-0.579122,-0.212481,-1.45259,0.434136,2.5679,1.17369,1.83986,1.73678,-2.30066,1.28952,0.52171,-1.59095,1.13129
-1.66665,0.941527,0.905556,-1.225,-2.37675,-1.90362,-0.700516,-0.148615,-1.56283,0.462301,2.68423,1.02036,2.73022,1.49967,-2.42994,1.05684,0.584751,-1.69277,1.29355
-1.89365,0.841235,0.559992,-1.64663,-2.41676,-1.63932,-0.90983,-0.0483425,-1.56137,0.481232,2.25992,0.920624,3.13567,1.78003,-2.47494,1.06363,0.544222,-1.67558,1.50459
-1.4414,1.03254,0.933884,-1.87586,-2.3726,-1.95736,-0.576957,-0.110556,-1.2617,0.383555,2.76769,1.07436,1.13085,2.78645,-2.20141,0.524084,0.53709,-1.5594,1.69096
-1.83966,0.993776,0.388248,-1.56875,-2.25941,-1.94505,-0.913014,-0.00367156,-1.37664,0.489186,1.84514,1.05853,2.36368,2.07721,-2.19019,0.848876,0.378882,-1.57137,1.56063
-1.45498,0.904158,0.396184,-1.50192,-2.2116,-1.87692,-0.774129,0.0421012,-1.25633,0.553991,2.06341,0.972618,1.53497,2.00786,-2.26991,0.865611,0.458668,-1.36225,1.62777
-1.63685,1.08978,0.371137,-1.79801,-2.27677,-1.95399,-0.632995,0.194604,-1.15943,0.513546,2.24863,1.14575,1.35878,1.61404,-2.17468,0.864385,0.47284,-1.0794,1.65815
-1.43294,1.2608,0.503804,-1.59822,-2.11044,-1.62355,-0.409926,0.316518,-1.25483,0.278743,2.06488,1.2666,1.44885,1.40533,-2.23324,0.780893,0.0263092,-1.12915,1.77189
-1.66063,1.10304,0.436734,-1.76105,-1.9172,-1.6254,-0.257054,0.386598,-1.38139,0.307702,1.88561,1.18524,1.4008,1.29151,-2.10034,0.995259,-0.0277086,-1.27715,1.73869
-1.68377,0.391011,0.579346,-2.50441,-1.72424,-1.43056,-0.00651792,0.341773,-1.44241,0.300127,1.88324,0.706771,1.58549,1.88104,-2.1541,1.09885,-0.0684855,-1.05489,1.69393
-1.50027,0.393018,0.429937,-2.47695,-1.28819,-1.27339,0.147246,0.373354,-1.4919,0.230023,1.85495,0.483141,1.18483,1.812,-2.0033,1.01398,-0.450393,-0.619616,1.58666
-1.38667,0.612656,0.424948,-2.22927,-1.30849,-1.02184,0.164716,0.498838,-1.46208,0.240502,1.22645,0.665138,1.46899,0.762074,-2.0786,0.945742,-0.584228,-0.248687,1.52429
-0.893234,0.276016,0.885565,-1.81997,-1.18101,-1.00812,0.146588,0.644773,-1.43915,0.1286,1.24606,0.811818,1.14825,1.01754,-2.06929,0.787883,-0.752018,-0.0751802,1.27967
-0.860382,0.383066,0.902877,-1.47684,-1.10388,-0.733311,0.0394798,0.919939,-1.30812,0.114909,1.59616,0.855323,1.05726,0.611795,-1.8734,0.743793,-1.18552,-0.0785967,0.908377
-0.47469,0.432457,1.02262,-1.52932,-1.17026,-0.469758,0.00727926,1.09897,-1.36728,0.031576,1.61569,0.930155,0.786801,0.701344,-1.9554,0.711718,-1.27334,0.067306,0.759834
-0.370602,0.587438,0.809019,-0.966847,-0.916104,-0.520848,0.0576496,1.12494,-1.30155,-0.131439,1.37788,1.06483,0.704777,0.799479,-1.8086,0.126908,-1.43118,0.236516,0.618734
0.0132193,0.412248,0.954343,-0.571631,-0.755103,-0.435431,0.241471,1.31772,-1.06505,-0.31271,1.87388,0.940462,-0.587964,1.05396,-1.28087,0.0475495,-1.55242,0.180176,0.439544
0.115884,0.193493,0.736893,-0.624075,-0.73082,-0.512494,0.345119,1.42005,-0.964389,-0.355159,1.55059,0.729397,-0.461157,1.20373,-1.2254,0.27408,-1.5697,0.258084,0.31749
-0.0765559,-0.248945,0.63329,-0.931678,-0.657829,-0.195251,0.434907,1.237,-0.991104,-0.3817,1.22976,0.712507,0.322395,1.41871,-1.335,0.208853,-1.50355,0.0826487,0.293683
0.341013,-0.308305,0.986455,-0.668808,-0.720752,-0.148587,0.596865,1.19294,-0.842705,-0.383039,1.32699,0.605396,-0.440179,0.981838,-1.06059,0.413726,-1.48355,0.156742,0.414345
0.793508,-0.431985,1.12877,-0.746693,-0.990445,-0.110055,0.716964,1.23766,-0.616497,-0.408514,1.3865,0.280619,-1.44127,0.98275,-0.646529,0.349725,-1.34566,0.445194,0.526993
0.45189,-0.620932,1.07787,-0.639073,-1.31865,0.0216659,0.526818,1.33868,-0.618089,-0.445474,1.06386,0.0833391,-0.0948076,0.60948,-1.02265,0.583431,-1.14267,0.404385,0.505097
0.230542,-0.446817,1.09505,-0.871101,-1.3636,-0.0501418,0.799789,1.09276,-0.486282,-0.531083,0.768681,0.170454,0.358339,1.01179,-1.2495,0.567653,-1.20252,0.301786,0.40115
0.552643,-0.449578,1.12562,-0.642098,-1.39705,-0.196053,1.17089,0.879984,-0.216265,-0.391432,0.946984,0.0293508,-0.743492,0.887388,-0.8895,0.83288,-1.31561,0.320733,0.360812
0.734633,-0.632297,0.716232,-0.172966,-1.1237,-0.523393,1.25414,0.785397,-0.0443913,-0.412307,0.538079,-0.101905,-0.811704,1.11677,-0.708996,0.737795,-1.3904,0.284934,0.364434
0.493322,-0.355048,0.589727,-0.0890951,-0.925462,-0.513435,1.18087,0.640321,-0.118896,-0.785552,0.709617,0.169325,-0.158939,1.41444,-0.741438,0.17955,-1.64731,0.076193,0.419861
0.40684,-0.0771902,0.897888,-0.321904,-0.896559,-0.265814,1.26683,0.456657,-0.0150038,-0.863041,1.08839,0.492831,-1.15986,1.3081,-0.362409,0.0892869,-1.49924,-0.00827583,0.388861
0.203057,0.143684,0.521987,0.0418845,-0.833922,-0.115698,0.829973,0.30389,-0.0799747,-0.947927,0.905084,0.450208,-0.267291,0.763527,0.0255032,0.186153,-1.2619,-0.152481,0.30106
0.758663,-0.126775,1.01361,0.668023,-0.574794,-0.025413,0.775591,0.287163,-0.174311,-0.877112,0.814579,0.385948,-0.585037,0.461212,-0.125327,0.300393,-1.65209,-0.296015,0.319368
0.667099,0.167746,1.26287,0.458703,-0.834277,-0.171629,0.650844,0.196345,-0.260772,-1.01333,0.961361,0.671068,-0.738965,0.568441,-0.00282557,0.0317216,-1.77684,-0.107584,0.540791
0.588179,0.187233,1.22731,0.268187,-0.787749,-0.240311,0.479843,-0.0986771,-0.285261,-0.960528,1.03175,0.772532,-0.853416,0.892661,-0.12075,-0.216636,-1.70412,-0.0643438,0.826963
0.766185,-0.0305755,1.22915,0.310643,-0.547952,-0.0193829,0.423084,-0.0955918,-0.409934,-1.05312,0.99161,0.700877,-0.922478,1.12502,0.127007,-0.127196,-1.86329,-0.00905135,0.808236
0.687591,0.0658001,1.25239,-0.0403925,-0.831458,0.14047,0.186919,-0.111481,-0.380732,-1.01036,1.05724,0.784145,-0.775327,0.949064,-0.14791,-0.266388,-1.51084,0.246849,0.993211
0.642012,-0.137818,1.29519,0.07637,-0.847188,0.0902927,-0.223495,-0.0507666,-0.516619,-1.0501,1.12262,0.823025,-0.189246,0.84121,-0.57297,-0.459448,-1.14202,0.292836,1.14816
0.803835,-0.074349,1.63767,0.368065,-0.911105,0.0458692,-0.418757,-0.115845,-0.687129,-1.08486,1.17492,0.863477,-0.453501,0.654896,-0.684957,-0.336084,-1.03113,0.260557,1.29546
1.0721,0.174134,1.87337,0.357426,-0.769839,0.0943312,-0.18032,-0.240756,-0.617827,-1.00295,1.64022,0.866636,-1.88295,0.756783,-0.671737,-0.634009,-0.841107,0.290467,1.57851
1.38611,-0.0903528,1.73434,0.527576,-0.949769,0.262786,-0.370148,-0.327078,-0.695038,-1.1176,1.04609,0.669497,-0.928246,1.17593,-0.923159,-0.836512,-0.735738,0.321823,1.78275
1.48422,-0.166182,1.78671,0.853984,-0.844085,0.375062,-0.416443,-0.208536,-0.718633,-0.970391,1.03577,0.476117,-1.01408,0.674807,-1.01138,-0.439789,-0.711148,0.248715,1.74463
1.2678,0.0266013,1.7404,0.357817,-0.354827,0.235402,0.09556,-0.0129055,-0.521691,-0.683051,1.36023,0.765472,-2.19613,0.191316,-0.749137,-0.521012,-0.4374,0.129159,1.60581
1.26454,0.0355101,1.41834,0.776457,-0.182596,0.0646233,0.121711,0.0927004,-0.560613,-0.521505,1.13938,0.633546,-1.75819,-0.306187,-0.781867,-0.191936,-0.487666,0.0237511,1.44449
0.993591,0.481159,1.69928,0.275767,-0.170775,-0.0101995,0.48532,0.147597,-0.212589,-0.460529,1.41544,0.987584,-3.0903,-0.918794,-0.287682,-0.262238,-0.507357,0.187176,1.31216
1.02482,0.20444,1.73022,-0.10406,-0.12626,-0.118077,0.408735,0.0593349,-0.176329,-0.570035,1.09817,0.446431,-2.63469,0.372594,-0.512103,-0.219257,-0.57691,0.239241,1.19688
1.22726,0.126091,1.33329,0.0928644,0.0808906,0.0527845,0.387084,0.118198,-0.00531713,-0.322134,0.675208,0.173402,-2.62389,0.4938,-0.376509,-0.426163,-0.526737,0.155904,0.957232
1.24718,0.482908,1.02968,0.348642,0.439779,0.304527,0.446412,0.462211,0.0987496,-0.174635,0.12358,0.0786621,-2.58362,-0.27054,-0.14599,-0.289726,-0.701783,0.0074861,0.766355
1.52793,0.33796,0.928326,0.707193,0.78263,0.569103,0.519027,0.416305,0.132675,-0.0967786,0.133394,-0.217664,-3.07845,-0.128003,0.00736959,-0.0758142,-0.670061,-0.162332,0.393841
1.36334,0.184969,0.239877,1.06646,0.819089,0.910743,0.38632,0.635252,0.18665,-0.00956909,-0.344914,-0.180778,-2.28555,-0.0956177,0.244883,-0.0457882,-0.986353,-0.314669,-0.107635
1.70106,0.0657198,0.854324,1.02443,0.771282,1.21974,0.719617,0.862045,0.223248,0.0500325,0.195164,-0.0375564,-3.40399,-0.56055,0.521833,0.0973184,-0.872178,-0.369019,-0.360578
1.50232,-0.143372,0.954477,0.654001,0.876989,1.57217,0.619704,1.20211,0.219146,0.173361,-0.116876,-0.219676,-2.91607,-1.25537,0.62372,0.396066,-0.764205,-0.490587,-0.543725
1.58973,-0.0680567,0.912152,0.72359,0.696538,1.48327,0.599773,1.37467,0.394805,0.193133,0.172608,-0.731955,-2.9989,-1.25191,0.870741,0.790857,-0.588321,-0.375872,-0.975775
1.84402,0.254346,0.859983,1.28447,0.983336,1.29105,0.788539,1.45863,0.581842,0.0984085,0.04606,-0.830225,-3.88524,-1.25934,1.4128,0.699267,-0.683488,-0.426889,-1.24793
1.10862,0.0606474,0.308655,0.671797,0.746833,1.65416,0.733032,1.5234,0.70598,-0.166503,0.35501,-0.977488,-3.06103,-0.831443,1.08721,0.391731,-0.58981,-0.230536,-1.37466
1.19229,0.204633,0.0886926,0.847608,0.637667,1.84975,0.836065,1.45885,0.784521,-0.213255,0.277167,-1.28216,-2.78259,-0.934328,1.00766,0.298461,-0.675395,0.0769266,-1.41907
1.13533,0.0652543,-0.108131,0.894228,0.85761,1.64708,0.870028,1.36647,0.955424,-0.346494,0.400525,-1.26968,-3.40333,-0.720243,1.36787,0.04019,-0.549994,0.130563,-1.24107
0.73504,-0.468327,-0.844497,0.882809,0.409147,1.52761,0.597247,1.10041,0.934916,-0.434118,0.00599738,-1.20156,-1.63003,-0.249851,1.1451,-0.129834,-0.48134,0.150119,-1.07749
1.55395,-0.451247,-0.209021,1.44082,1.164,1.42159,1.15493,1.00979,0.975594,-0.607446,0.789096,-0.477863,-4.36937,-1.34005,1.48338,0.152548,-0.576786,0.278792,-0.83771
0.76838,0.250557,-0.628051,1.25668,1.02044,0.985953,1.0883,0.560345,0.723586,-0.650547,0.759554,-0.304109,-3.15163,-1.08503,1.16419,-0.703034,-0.520846,0.536244,-0.464089
0.924471,0.141067,-1.08197,1.49662,1.19608,0.656622,0.939799,0.458662,0.511679,-0.983489,-0.494644,-0.615931,-2.18088,-0.213985,1.09734,-0.886651,-0.263098,0.514739,-0.189049
1.48862,0.4975,0.0245356,0.969478,1.42607,0.765219,1.69187,0.489516,0.687741,-0.967368,0.663739,-0.383723,-5.58539,-0.867716,1.56068,-0.543125,-0.371537,0.437669,0.177162
0.510602,0.843049,-0.281951,0.24408,1.15625,0.72583,1.50279,0.187419,0.357084,-0.90306,0.517623,-0.0651418,-3.7981,-0.514221,1.1185,-0.46827,-0.546645,0.223395,0.282701
0.444734,0.94119,-0.499636,0.699515,1.58155,0.479841,1.59429,-0.00633815,0.212514,-0.988539,0.52354,-0.157093,-3.32936,0.0872654,0.832985,-0.788457,-0.772794,-0.167048,0.501073
0.488077,0.0873577,-0.56972,0.791585,1.52604,0.864273,1.59368,-0.0334669,0.0287609,-1.30103,1.27982,-0.0791021,-3.21154,0.584346,0.771302,-0.785332,-0.680511,-0.451412,0.683248
0.445629,0.295101,-0.349122,0.21711,1.20179,1.22754,1.59281,-0.110225,-0.0941011,-1.21074,0.869039,-0.0691481,-3.08404,0.676632,0.73329,-0.521601,-0.637098,-0.469648,0.640496
0.963341,0.530181,-0.140143,0.761817,1.72303,1.35722,1.6114,-0.24199,-0.263837,-1.41852,1.40476,0.0240561,-4.34359,0.988007,0.992651,-0.532287,-1.3753,-0.69109,0.626882
0.735934,0.622833,-0.607525,1.2085,1.23808,1.28677,1.29192,-0.497564,-0.402473,-1.4767,1.57878,0.323542,-3.6911,0.861933,0.996156,-0.594826,-1.23216,-0.555772,0.661269
0.13723,0.531562,-1.10719,1.37917,0.947611,1.19457,0.756318,-0.497013,-0.654524,-1.45778,1.58316,0.356792,-1.83106,0.932956,0.418521,-0.452593,-1.13746,-0.57713,0.542032
-0.304857,1.17815,-0.626511,0.501126,1.10326,1.67111,0.502662,-0.380873,-1.0033,-1.52581,1.51279,0.471105,-1.68704,0.804262,0.593439,-0.10374,-1.10999,-0.82559,0.283171
0.159389,1.01846,-0.503722,1.10218,1.30179,1.63126,0.404256,-0.404938,-1.28627,-1.59126,1.62215,0.353245,-1.55911,1.5233,0.407285,-0.240142,-1.34085,-0.906978,0.298763
0.0870156,0.983615,-0.288213,0.267927,1.58678,1.36803,0.500369,-0.545915,-1.40919,-1.47414,2.21255,0.294385,-2.8997,2.12261,0.469529,-0.270908,-1.07616,-0.680673,0.414764
0.574193,0.675531,-0.502951,1.32692,1.30704,1.14592,0.396742,-0.489211,-1.65507,-1.40749,2.10183,0.157853,-2.3784,1.89411,-0.00788313,0.0168346,-1.01315,-0.605091,0.581464
0.22672,0.463197,-0.352303,0.0719129,1.14036,1.66085,0.465324,-0.270485,-1.6355,-1.4388,2.59052,0.547948,-2.71835,1.75759,-0.36004,-0.0288681,-0.867992,-0.415424,0.73093
1.08491,0.435844,0.0120457,1.28082,1.28819,1.80613,0.765318,-0.136076,-1.65388,-1.13705,2.47304,0.529523,-3.61752,0.606978,-0.303351,0.454505,-1.44312,-0.181657,0.750663
1.56782,-0.294982,-0.527228,2.06654,0.937732,1.68204,0.524652,-0.144009,-1.72217,-0.800642,2.01288,0.2141,-2.72106,0.413227,-0.608933,0.823656,-1.21201,-0.0754946,0.867787
1.65198,-0.0102859,-0.307735,1.9174,0.985492,1.39478,0.549997,-0.122654,-1.65612,-0.545356,2.35719,0.0831096,-3.51524,0.418264,-0.462808,0.745071,-1.26243,-0.0923674,0.903079
1.25304,-0.0240263,-0.558034,1.43155,0.719044,1.12791,0.310605,-0.186983,-1.55462,-0.00446004,2.44695,0.0942638,-3.03339,0.741402,-0.786588,0.819472,-0.999222,-0.203854,0.771167
1.4356,-0.171912,-0.00178351,0.780686,0.477092,0.960561,0.536242,-0.351695,-1.44445,0.513996,2.23848,-0.307868,-3.67896,1.80125,-0.74816,0.963704,-0.79664,-0.315571,0.708581
1.59002,-0.136919,0.175318,0.992316,0.962181,0.685998,0.419115,-0.132153,-1.39815,0.749913,2.31519,-0.437923,-3.99805,1.65827,-0.467818,0.806147,-0.768329,-0.688156,0.555528
1.49146,0.031754,0.03803,1.41636,0.722645,0.48352,-0.0293788,0.129261,-1.22123,1.24413,1.95277,-0.530757,-3.17268,0.933429,-0.670504,1.02164,-0.871062,-0.743888,0.309392
1.62222,-0.478279,0.133663,1.02713,0.983478,0.468058,0.0932251,0.234184,-1.04225,1.49023,1.84536,-0.673202,-3.88984,0.849357,-0.42446,1.21052,-0.52283,-0.627665,0.0653187
1.93265,-0.303843,0.586947,0.653773,1.45907,0.403663,0.420346,0.313631,-0.757903,1.80513,1.91923,-0.56016,-5.69373,0.363297,-0.0229438,1.38121,-0.407321,-0.399809,-0.224944
0.867426,0.0444029,-0.301339,0.157964,1.11868,0.50659,0.131942,0.389573,-0.742042,1.88051,1.62716,-0.586087,-3.92891,0.239826,-0.491825,1.54129,-0.163094,-0.221313,-0.470745
1.56851,-0.211705,-0.335996,1.05338,0.903712,0.398242,0.0775175,0.209612,-0.481068,1.93061,1.6317,-0.872335,-4.19481,0.00772312,-0.546434,1.57353,0.112173,0.10669,-0.643782
1.90761,-0.390491,-0.112317,1.30906,0.607296,0.470409,0.135402,0.120446,-0.455259,1.57409,1.21745,-1.02673,-3.70409,0.165202,-0.360824,1.35613,0.265389,0.281412,-0.737452
1.84593,-0.703487,0.229363,0.747828,0.797341,0.010159,0.336034,-0.152979,-0.19231,1.53058,1.67304,-0.988466,-4.62881,1.10751,0.0760309,1.32012,0.173881,0.406607,-0.945261
1.84036,-1.16273,0.397289,0.406422,1.28271,-0.14784,0.442803,-0.130588,-0.229912,1.54768,1.7722,-0.833155,-4.79021,1.77075,0.0954609,1.20127,0.0994595,0.302917,-1.04949
1.6874,-0.901648,0.469985,0.424022,1.26229,0.126805,0.165055,0.0651309,-0.41529,1.3581,1.35359,-1.13446,-3.88602,1.16508,-0.00954765,1.25009,0.128329,0.381517,-0.940567
2.0443,-0.852288,1.55911,-0.199579,2.0849,0.179444,0.545412,0.114915,-0.419741,1.04108,2.01567,-1.18822,-6.33659,1.02687,0.589598,1.14783,0.364153,0.446913,-0.7456
1.43181,-0.808033,1.33754,-0.382937,1.56489,0.390137,0.300905,0.232333,-0.607879,0.905188,2.04362,-1.16098,-4.86331,0.592662,0.242594,1.4375,0.522702,0.313691,-0.650354
1.3407,-0.346348,1.19383,0.226805,1.41967,0.446953,0.139095,0.327977,-0.88791,0.611755,1.83133,-0.815647,-4.25834,-0.319861,0.513814,1.58007,0.444466,0.0178823,-0.487845
1.68679,-0.684947,1.39417,-0.00359721,1.42351,-0.00101604,0.230581,0.0314349,-0.717193,0.520492,1.82216,-1.25165,-4.84967,0.99372,0.786171,1.31044,0.654428,0.0777021,-0.300574
1.52822,-1.16898,0.754271,-0.0479728,1.45265,-0.134065,0.200503,-0.037059,-0.815107,0.436744,1.14263,-1.35426,-4.07849,1.74246,1.01754,1.26541,0.618644,0.146786,-0.293348
1.63877,-1.28461,0.612295,0.0342066,1.85572,-0.137855,0.4791,-0.0873937,-0.582702,0.146939,1.36996,-1.13328,-5.28245,1.97179,1.78986,0.967418,0.374417,0.0317997,-0.27006
0.972896,-0.964924,-0.106558,-0.0996684,1.14069,-0.0660192,0.518497,-0.161199,-0.551089,0.158093,1.52484,-1.06037,-3.85756,1.68944,1.37773,1.20623,0.173013,0.0915357,-0.279013
0.847584,-0.764404,-0.0126326,-0.998665,1.34161,-0.370898,0.77816,-0.391165,-0.436081,0.205639,1.26767,-1.11376,-4.59713,2.05605,1.7045,1.20242,0.273389,0.230249,0.0186936
1.54615,-1.15881,-0.313862,0.329708,1.00665,-0.52472,0.839058,-0.29217,-0.36138,0.206706,1.47252,-1.29303,-4.85576,1.91998,1.71599,1.3158,0.032511,0.185248,0.235272
1.26727,-0.686343,-0.121927,0.119737,1.22095,-0.522867,0.883825,-0.409324,-0.337807,0.378339,1.55497,-1.11248,-5.0514,1.21022,1.70321,1.44877,-0.243563,0.155254,0.320575
0.914306,-0.44701,-0.133379,0.220623,0.92546,-0.603526,0.703188,-0.524847,-0.260019,0.0946389,0.796507,-0.888484,-3.95163,0.927057,1.72352,1.12123,-0.307441,0.190446,0.528938
0.92691,-0.30853,-0.156383,0.152205,0.467687,-0.69312,0.899172,-0.781589,0.106364,0.161969,0.72042,-1.22256,-4.14916,1.4845,2.00885,1.07479,-0.195964,-0.103665,0.59429
0.460225,0.0955763,-0.263032,-0.0228245,0.308083,-0.305342,0.991825,-0.540406,0.352339,0.304406,0.787157,-0.867888,-3.63596,-0.421579,1.8742,1.48868,-0.320961,-0.34852,0.513295
0.205212,0.0158787,-0.492102,-0.475104,0.300716,-1.09976,1.09305,-0.919017,0.697624,0.383164,1.25161,-1.043,-4.06141,1.09982,2.10791,0.891655,0.0439533,-0.415466,0.387637
-0.579712,0.118964,-0.287309,-1.256,0.217585,-1.40232,0.999997,-0.904759,0.927608,0.418904,1.42937,-0.872318,-3.71666,1.26681,2.08878,0.671257,0.211805,-0.333743,0.335915
-0.826147,0.166285,-0.246156,-1.60349,0.285909,-1.57907,0.931308,-0.979512,1.10117,0.411661,1.07402,-0.949073,-3.12357,1.40081,2.02307,0.619069,-0.128953,-0.29482,0.29598
-0.528441,-0.21315,-0.11888,-1.73991,0.65425,-1.94572,1.17584,-1.10894,1.52649,0.543157,1.53785,-1.01778,-4.37772,1.7589,2.16677,0.740164,-0.186227,-0.156212,0.285132
-0.453222,-0.165283,-0.125343,-1.46767,0.826978,-2.04961,1.0863,-1.15498,1.52937,0.588889,1.6523,-1.03834,-4.27356,1.70862,1.97584,0.813574,-0.485402,-0.271848,0.192368
-0.993865,0.403419,-0.0273659,-1.61521,0.8189,-2.01022,1.14154,-1.11084,1.43393,0.525068,1.58922,-0.710953,-3.50646,1.06381,1.49722,0.875693,-0.73211,-0.320307,0.122724
-0.828627,0.438076,0.306579,-1.72468,0.999446,-1.96132,1.19182,-1.18034,1.33063,0.447389,1.47121,-0.857775,-3.30991,1.3125,1.331,0.760176,-0.818811,-0.354975,0.00194474
-0.512381,0.296289,0.735754,-1.49392,1.79024,-1.89676,1.32283,-0.990442,1.31124,0.505378,1.89241,-0.544841,-4.40679,0.771657,1.45162,0.834947,-0.858255,-0.39765,-0.144654
-0.439967,0.469313,0.876658,-1.13846,1.90732,-1.75809,1.15554,-0.768609,1.2889,0.4341,1.64786,-0.293396,-4.38907,0.464407,1.42566,0.891622,-0.796454,-0.606873,-0.301647
-0.435372,0.136043,0.742619,-1.11972,2.0044,-1.65326,1.10696,-0.605528,1.34003,0.369141,1.2465,-0.750204,-3.34342,0.956586,1.2611,0.584557,-0.852177,-0.409891,-0.625122
0.0924232,-0.429963,0.736926,-0.707295,1.84612,-1.22128,1.08316,-0.425963,1.40209,0.197069,1.08541,-1.00543,-3.827,0.646343,1.39165,0.530923,-0.600322,-0.0874208,-0.657865
-0.00808601,-0.415885,0.707593,-0.839284,1.16793,-1.09111,0.634287,-0.483504,1.40433,0.197614,0.95492,-0.812117,-3.05304,0.262137,1.31734,0.418414,0.0988704,0.333226,-0.790867
0.0915287,-0.670548,0.534979,-1.10072,0.771874,-0.887466,0.444416,-0.619985,1.3299,0.339494,1.0809,-0.651953,-2.91199,0.519931,1.15257,0.514305,0.456746,0.511365,-0.922426
0.4599,-0.743922,0.489707,-0.718812,0.408342,-0.684269,0.230709,-0.629681,1.42525,0.395836,0.957524,-0.534905,-2.89985,0.486583,1.13682,0.241316,0.609434,0.652216,-0.88638
0.697512,-0.750358,0.694735,-0.248964,-0.254616,-0.648863,0.189699,-0.739607,1.44049,0.365466,1.40847,-0.392018,-3.10472,0.840162,1.05195,0.107837,1.03429,0.645446,-0.938806
0.91089,-0.175139,1.03826,0.202762,-0.487589,-0.469426,0.401815,-0.580911,1.55814,0.515893,1.38541,-0.194826,-3.90356,-0.706231,1.27637,0.578524,1.23951,0.50558,-1.16595
0.492183,-0.168975,0.89906,-0.0549024,-0.779054,-0.874327,-0.0351312,-0.626772,1.34959,0.46172,0.907083,-0.221882,-2.10287,0.228789,0.987609,0.217103,1.36928,0.27349,-1.18568
0.995299,-0.153276,2.02228,-0.289436,-0.550535,-1.19024,0.401582,-0.46162,1.33634,0.445421,1.78394,-0.523503,-4.418,0.65755,1.20259,0.456639,1.63503,0.339954,-1.08363
1.22795,-0.301676,2.17182,-0.340644,-0.522532,-1.00729,0.1814,-0.108198,0.868833,0.21114,1.14304,-0.595652,-3.61899,0.507001,1.12043,0.555707,1.71922,0.465127,-0.909031
0.874541,0.00196168,2.43602,-0.663408,-0.532127,-1.23868,-0.0450439,0.295846,0.475746,0.289233,1.26052,-0.292266,-2.91431,-0.0280422,0.743694,0.729612,1.43375,0.546745,-0.796483
1.28016,-0.000991873,2.79146,-0.383718,-0.184041,-1.02251,-0.0246241,0.284959,0.305312,0.0708125,1.44989,-0.284218,-3.52969,0.0233071,0.809298,0.873189,1.00709,0.433582,-0.753329
1.08267,-0.155331,1.89848,-0.260611,-0.19437,-0.987377,-0.0354495,0.411016,0.32606,-0.0901641,1.11854,-0.362739,-3.03609,0.256458,0.82319,1.03138,0.753719,0.612706,-0.739849
1.34452,-0.384921,1.6158,0.0297496,-0.0439825,-0.716908,0.0463359,0.488546,0.301287,-0.272075,1.08589,-0.240467,-3.74432,0.221504,1.24287,0.958882,0.547943,0.750057,-0.617578
1.26857,-0.362159,1.00055,0.265487,-0.404293,-0.518552,-0.25699,0.518319,0.134333,-0.421411,0.759937,-0.40282,-2.60738,0.259652,1.09484,0.846793,0.322198,0.803254,-0.363394
1.02734,-0.123243,0.501159,0.370798,-0.71073,-0.200064,-0.355544,0.595827,0.128955,-0.541728,0.437821,-0.120877,-1.7168,0.0795073,0.549505,0.614347,0.247125,0.80317,-0.0895451
0.999649,0.0830237,0.212888,0.586917,-0.520116,0.302231,-0.263358,0.663439,0.182952,-0.702989,0.290878,0.190045,-1.98676,-0.792196,0.761715,0.640727,0.25345,0.785899,0.00717561
1.41888,-0.213262,0.642231,0.633505,-0.735203,0.360291,-0.00912877,0.777309,0.326813,-0.804009,-0.111363,0.141863,-2.53607,-0.87473,1.29934,0.466536,0.238628,0.945321,0.011585
1.23734,-0.26763,0.156064,0.556173,-0.75887,0.138201,-0.0153906,0.770984,0.366051,-0.915886,-0.177212,-0.191791,-1.68334,-0.221134,1.26778,0.131646,0.236116,1.03975,0.111072
1.59425,-0.456224,0.597763,0.665258,-0.519358,0.350001,0.36019,0.716506,0.658299,-0.989523,0.341279,-0.455714,-3.67521,-0.284755,1.8389,0.16305,0.41079,1.02407,0.00186091
1.42405,-0.506193,0.431645,0.805867,-0.397636,0.881561,0.36019,0.856734,0.723434,-1.08362,0.0340048,-0.464573,-3.10046,-0.889739,2.02139,0.219926,0.497864,0.575502,-0.258978
1.45869,-0.278192,0.656663,0.853008,-0.461292,1.12758,0.596079,0.730148,0.996418,-0.897667,0.0407493,-0.600541,-2.99103,-1.36446,1.99799,0.29915,0.434574,0.349344,-0.437515
1.84398,-0.283104,0.983944,0.832545,0.0846337,1.17394,0.690919,0.458751,1.26389,-0.964369,-0.0979352,-0.768753,-4.02201,-0.777373,2.421,-0.176511,0.60931,0.287135,-0.642726
1.52261,-0.410684,0.68834,0.791813,0.389437,1.14412,0.534501,0.341024,1.27989,-0.840542,-0.518754,-0.648952,-3.11988,-1.16954,2.45061,-0.169958,0.414046,0.157224,-0.656742
1.62783,-0.775769,0.954913,0.613725,0.730013,1.19518,0.582027,0.36304,1.34471,-0.760671,-0.309011,-0.804475,-3.18799,-0.952092,2.36199,-0.0376894,0.438885,-0.201024,-0.632398
1.15302,-0.594382,0.898691,0.190335,0.834275,1.06617,0.391265,0.223474,1.37998,-0.762994,-0.619153,-0.616919,-2.71659,-0.413246,2.40286,-0.21546,0.362261,-0.413852,-0.805302
0.907719,-0.469659,0.904886,0.112287,0.869953,1.04327,0.536667,0.0625965,1.38513,-0.791787,-0.459044,-0.680085,-2.44187,0.165743,2.17316,-0.782946,0.105878,-0.443972,-0.791554
1.30679,-0.559437,0.798505,0.48717,1.08246,1.00153,0.778457,-0.00334099,1.37041,-0.702468,-0.583916,-0.743321,-2.78566,0.265162,1.72326,-0.811124,-0.130411,-0.30224,-0.72191
1.50638,-1.07143,0.362197,0.70664,1.34516,1.08434,0.739825,-0.378603,1.22893,-0.76949,-0.490989,-1.01212,-2.78626,1.15928,1.64836,-1.00057,0.0937849,-0.13194,-0.550901
1.85943,-1.09469,0.500222,1.38509,1.54909,1.29761,0.867438,-0.355948,1.22892,-0.713397,-0.263617,-0.668296,-3.74443,0.30615,1.77052,-0.916828,0.0414726,-0.218693,-0.493462
1.60685,-0.972388,0.453443,1.17193,0.765714,1.21122,0.640549,-0.346075,1.44746,-0.44225,-0.176425,-0.518403,-2.80493,-0.0293099,1.23213,-0.962615,0.0895986,-0.130515,-0.251082
1.58892,-1.25009,0.493759,0.880531,0.940835,0.603845,0.293263,-0.507305,1.63496,-0.359071,-1.21062,-0.4396,-1.86245,0.724922,0.873734,-1.28771,0.150997,-0.03806,-0.178352
2.29757,-1.26686,1.20129,0.849852,1.28027,0.448225,0.537027,-0.409897,1.75992,-0.29142,-0.950659,-0.293431,-3.80464,0.648575,1.05457,-1.19891,0.247652,0.159111,-0.12378
2.08862,-0.995968,1.3943,0.32408,1.18229,0.643898,0.464858,-0.237626,1.69431,-0.13739,-1.12799,0.00135957,-3.53802,-0.263897,0.755329,-1.14638,0.234411,0.478688,-0.044211
1.84117,-0.799349,1.42862,0.123674,0.873672,0.526561,0.428475,-0.32547,1.59138,-0.0048038,-1.48219,-0.0247962,-2.7014,-0.259993,0.510501,-0.914241,0.282351,0.646263,-0.227358
1.92464,-0.841164,1.42484,0.223877,1.05069,0.161105,0.686653,-0.303784,1.52277,-0.0615605,-1.35993,-0.211063,-3.34101,0.0186251,0.817572,-1.18827,0.574828,0.770493,-0.148577
1.83934,-0.829221,1.12113,0.206569,0.818971,-0.129031,0.952047,-0.207589,1.36703,0.0677779,-0.509667,-0.27077,-3.83322,0.0654953,0.529163,-1.1198,0.886593,0.688938,0.0611608
1.45621,-0.357986,0.659241,0.620264,0.410427,0.178725,0.888134,0.108986,1.02264,-0.0508682,-0.644979,0.246963,-2.65105,-0.463869,0.337232,-1.0499,0.752634,0.271603,0.0189618
1.02124,-0.159055,0.366885,0.519638,0.204816,0.247213,0.774254,0.325774,0.943458,0.0159643,-0.602696,0.423082,-2.25817,-0.682652,0.519784,-0.849198,0.782279,-0.23957,-0.0553768
0.813227,-0.364824,-0.105854,0.357264,0.0404745,0.143346,0.87179,0.45712,0.758526,-0.000275594,-0.249503,0.275483,-1.99387,-0.244983,0.5722,-0.608688,0.803923,-0.514837,-0.079184
0.660756,-0.182908,-0.040425,0.418199,0.00171665,0.308371,0.917702,0.495818,0.670942,0.128861,0.388127,0.273066,-2.83152,-0.355322,0.619575,-0.236026,0.77955,-0.709619,-0.132649
0.706823,-0.321291,0.311166,0.515474,-0.173452,0.624287,0.561586,0.397816,0.225681,0.230295,0.23145,0.281413,-1.13281,-0.0353609,0.187537,0.178222,0.401984,-0.981135,-0.462161
0.438879,-0.336011,0.685862,0.381826,-0.146089,0.734626,0.350872,0.518121,-0.0692516,0.220706,0.671735,0.538736,-0.764528,0.16025,0.108921,0.402552,0.221914,-1.37032,-0.664756
0.269656,-0.367136,0.796496,-0.0808316,0.296451,0.958182,0.384791,0.302766,-0.361849,0.261934,0.999687,0.553402,-0.863235,-0.0531421,-0.163499,0.779028,0.237357,-1.44544,-0.667522
0.482466,-0.759877,0.895109,-0.141539,0.432885,0.696399,0.494766,0.0871248,-0.607006,0.171607,1.05033,0.461627,-1.14403,0.741926,-0.103529,0.728823,0.30536,-1.11717,-0.641905
0.441888,-0.902948,0.529688,-0.278505,0.403817,0.842283,0.410221,0.15509,-0.951026,0.019722,0.608107,0.468528,-0.450372,0.689343,-0.301622,0.870451,0.219961,-0.956066,-0.544966
0.354837,-0.929514,0.661953,-0.413453,0.508932,0.857524,0.48498,0.188081,-0.975756,0.0456229,1.15749,0.63547,-1.05357,0.141116,-0.15825,1.1259,0.0673341,-0.857282,-0.467341
0.0531466,-0.939482,0.358681,-0.522896,0.541744,0.695846,0.558933,0.168136,-1.09083,0.0709429,0.742713,0.612508,-0.380113,0.349589,-0.145158,1.19092,0.177168,-0.766085,-0.500151
0.0614817,-0.758802,0.155227,-0.822659,0.511775,0.182763,0.564134,0.061715,-1.20158,-0.00271751,0.394023,0.367541,-0.334869,1.43747,-0.180961,0.873878,0.118654,-0.455227,-0.301915
1.07117,-1.53406,0.844212,-0.178107,0.914705,0.219442,0.699898,0.0692961,-1.06899,0.0151345,0.380413,-0.0478281,-1.65379,1.16367,0.0568249,0.943037,0.155555,-0.200311,-0.139507
1.0397,-1.55242,1.0335,-0.281107,0.79284,-0.0358135,0.63919,-0.0534773,-0.986752,0.0760283,0.167984,-0.264381,-1.43315,1.3234,0.167099,0.884447,0.325112,-0.0705271,-0.067599
1.00498,-1.35019,0.90214,-0.35434,0.851972,0.175129,0.460718,-0.128142,-0.870413,0.0166993,0.0561564,-0.227477,-1.26631,1.11107,0.22102,0.8023,0.299871,0.0145706,-0.226906
1.86101,-1.42125,1.25564,0.41937,1.09982,0.54573,0.588586,-0.00503791,-0.574074,-0.0198346,0.584421,-0.35462,-3.41212,0.188798,0.744158,0.808097,0.38927,0.218197,-0.182443
1.17932,-1.22692,0.342642,0.432513,0.0906511,0.221876,0.0167038,-0.3232,-0.464433,-0.208206,-0.273148,-0.622073,-0.64604,1.19705,0.501875,0.164747,0.571417,0.626163,-0.158066
1.07942,-1.18021,0.298174,0.479687,0.0824068,0.256203,-0.00813113,-0.452628,-0.134179,-0.163137,0.170569,-0.685821,-1.08204,0.857487,0.64099,0.31034,0.57734,0.692711,-0.282282
1.00981,-0.929417,0.087755,0.570325,0.15907,-0.025247,0.0613005,-0.584658,0.139002,-0.312912,0.511323,-0.513902,-1.83362,0.888588,1.2776,0.166981,0.351284,0.82981,-0.411948
0.0884793,-0.708286,-0.899513,0.230286,0.0491689,-0.211599,-0.154296,-0.86152,0.14726,-0.393755,0.139028,-0.340413,-0.422819,0.499141,1.36502,0.279575,0.397674,0.934044,-0.494853
-0.519781,-0.520222,-0.954964,-0.41212,0.377994,-0.387329,0.00693964,-1.07643,0.421389,-0.565199,0.0599123,-0.640322,-0.438492,0.773179,1.73723,0.189346,0.527632,1.00001,-0.642307
-0.576866,-0.867553,-1.26008,-0.0284853,0.741289,-0.750074,0.113963,-1.192,0.745829,-0.851543,0.59165,-0.70144,-0.63354,0.87684,1.94578,-0.10752,0.478235,1.04318,-0.663063
-0.520228,-0.70392,-0.796078,-0.281856,0.919703,-0.739065,0.273926,-1.16871,0.964544,-1.06193,0.66909,-0.692016,-1.10999,0.365326,2.21927,-0.0720673,0.457242,1.08167,-0.668964
-0.763206,-0.545376,-0.675566,-0.201823,1.05848,-0.714972,0.0711921,-1.14918,1.15685,-1.16478,0.209683,-0.722372,-0.486403,0.190792,2.44662,-0.285845,0.459723,0.993214,-0.745533
-0.421589,-0.622393,-0.446463,-0.0431579,1.20487,-0.976368,0.390947,-1.2043,1.25756,-1.16966,0.832329,-0.796868,-1.52318,0.685963,2.29192,-0.500934,0.457738,0.982881,-0.664102
-0.673675,-0.443494,-0.50486,-0.363319,1.26995,-1.17575,0.322598,-1.24555,1.28375,-1.27847,0.614448,-0.466109,-1.38364,0.605254,2.13486,-0.499707,0.221883,1.0186,-0.55863
-0.702421,-0.472548,-0.51437,-0.452103,1.15121,-1.25959,0.204473,-1.29146,1.27181,-1.29117,0.64607,-0.319446,-1.35078,1.06035,2.13726,-0.668454,0.274134,0.97259,-0.548939
-0.608255,-0.169665,-0.326855,-0.700756,0.757518,-0.979715,-0.0123552,-1.36842,1.31741,-1.04253,0.437559,-0.0252198,-1.14726,0.819643,1.84669,-0.619004,0.536284,1.02264,-0.594542
-0.310346,-0.0773668,-0.0766557,-0.647141,0.562852,-0.642252,0.108169,-1.18546,1.23086,-0.768174,-0.0749759,-0.0229784,-1.57164,-0.0837691,1.78142,-0.230666,0.733843,0.97892,-0.369179
0.104011,-0.461729,0.223168,-0.875038,0.14296,-1.03711,0.303324,-1.40623,1.13089,-0.523746,-0.383583,-0.344843,-1.72585,1.71327,1.27634,-0.85933,1.16803,1.15029,-0.141418
0.081364,-0.234932,-0.228744,-0.546353,-0.084375,-0.827137,0.0787699,-1.12895,0.864382,-0.430254,-0.735766,0.0158141,-0.597495,0.9158,0.745566,-0.748955,1.19749,1.22956,-0.0523423
0.49507,0.0626057,0.494161,-0.53425,0.03576,-0.613235,0.292372,-0.827582,1.06941,-0.110648,-0.0432126,0.14894,-2.56278,-0.143992,0.821654,-0.509906,1.47239,1.16486,-0.131074
0.222492,-0.158734,0.224206,-0.247338,-0.308843,-0.346722,-0.13723,-0.389203,0.801647,-0.141349,-0.397011,0.0437701,-0.492935,-0.607589,0.359735,-0.71204,1.62597,1.00143,-0.134443
0.408222,-0.175845,0.671229,-0.643139,-0.199535,-0.56599,0.163867,-0.316125,0.852285,0.0120762,0.18006,-0.0559467,-2.11197,0.187091,0.578058,-0.893103,1.73847,1.13629,-0.365976
0.250058,-0.133661,0.65519,-0.861797,0.00112438,-0.580706,0.0735694,-0.235158,0.749134,0.190988,0.443859,-0.0477222,-2.20126,0.479365,0.622312,-0.579048,1.33226,1.03786,-0.840744
-0.200038,0.115449,0.580284,-1.03442,0.0536938,-0.21135,0.0735906,0.0562937,0.468023,0.0236575,0.970993,0.0588246,-1.8299,0.346547,0.56279,-0.567908,1.10496,0.960517,-1.09266
-0.0512253,0.135401,0.460542,-0.857307,0.03377,-0.403897,0.203305,0.19478,0.221601,0.185108,0.820496,0.0510591,-1.54958,0.280341,0.489391,-0.115401,0.991001,1.02908,-1.32574
0.419729,0.312999,1.13074,-0.82653,0.420211,-0.306005,0.7169,0.418002,0.157284,0.213214,1.57375,0.411716,-3.51216,-0.648239,1.02104,0.339123,0.878748,0.84989,-1.4541
-0.459849,0.104758,0.547,-0.868499,0.149878,-0.584911,0.292414,0.181491,-0.254074,-0.031001,1.18887,0.460745,-1.08992,0.227538,0.853167,0.172946,0.648723,0.682587,-1.51236
-0.451026,0.407641,0.395514,-0.90396,0.0898693,-0.589668,0.325251,-0.0594937,-0.404752,-0.121719,1.05802,0.46694,-0.791706,0.773094,0.50586,0.254136,0.564068,0.763828,-1.54926
0.0667673,0.153475,0.932578,-0.66523,0.199723,-0.398144,0.506992,-0.195269,-0.453851,-0.184676,0.525054,0.59373,-1.07767,0.69438,0.757538,0.520354,0.161943,0.672945,-1.64581
0.0825431,0.295471,0.948919,-0.100319,0.268544,-0.187257,0.583365,-0.208845,-0.592378,-0.355112,0.819991,0.993373,-1.13657,0.293592,0.574617,0.401326,0.160547,0.542616,-1.64792
0.130602,0.355456,0.976242,-0.218025,0.203134,-0.386084,0.592535,-0.470986,-0.446074,-0.453559,1.14407,1.02874,-1.62758,0.898611,0.778104,0.322556,0.0251618,0.558881,-1.5784
0.0301742,0.409295,0.546531,0.0310834,-0.10572,-0.7727,0.470058,-0.788421,-0.401491,-0.404839,0.679752,1.1574,-0.417268,0.993348,0.619703,0.396806,-0.1599,0.652467,-1.55055
0.0571311,0.617632,0.736223,-0.0711692,-0.219482,-1.01772,0.624353,-0.908109,-0.244594,-0.356321,1.47739,1.33248,-1.469,0.748467,0.644687,0.277542,-0.299875,0.691977,-1.29657
-0.0626098,0.849903,0.967068,-0.180807,-0.161701,-1.36511,0.572645,-1.05451,-0.0641901,-0.301271,1.63197,1.1918,-1.93296,0.861814,0.799743,0.186674,-0.130038,0.800885,-1.24101
-0.622241,0.729289,0.622609,-0.485027,-0.26151,-1.44851,0.384876,-1.03157,-0.00268819,-0.259841,1.62494,1.3682,-1.22906,0.587709,0.655586,-0.0168711,0.110065,0.836266,-1.0824
-0.548486,1.05447,0.612898,-0.0642395,-0.509147,-1.30802,0.218504,-0.985881,0.0182124,-0.29308,0.583472,1.23433,-0.23834,-0.503555,0.505044,0.0721652,0.144981,0.935407,-0.880026
0.128732,1.03363,1.39531,0.0270168,-0.370676,-1.45753,0.466067,-1.03361,0.284194,-0.253251,1.49366,0.782044,-2.37833,-0.337338,0.874614,0.0459533,0.210255,0.985145,-0.536734
-0.269443,1.10768,0.933281,0.0940682,-0.187382,-1.15243,0.114048,-1.09715,0.107455,-0.272501,0.943955,0.606808,-0.955914,-0.345485,0.617735,-0.151224,0.344989,0.882273,-0.575982
-0.0768812,1.06578,0.797333,-0.00431294,-0.0419925,-1.01343,0.223853,-1.26215,0.314999,-0.272999,1.29044,0.218618,-1.40869,0.0266537,0.852783,-0.277007,0.368618,0.8322,-0.587349
-1.04778,1.01373,0.655123,-1.15414,0.172621,-0.890619,0.114133,-1.32042,0.425764,-0.178796,1.4322,0.559703,-1.12995,0.0641431,0.919732,-0.281644,0.173602,0.671751,-0.582236
-0.363446,0.865955,0.589727,0.051547,0.217301,-1.04679,0.282798,-1.18872,0.514744,-0.081973,1.36582,0.237803,-1.54753,-0.161401,0.875975,-0.332539,-0.00296337,0.434756,-0.379406
-0.647003,0.438188,-0.0297099,0.100933,0.0309745,-1.1799,0.186834,-1.17607,0.526296,-0.0583718,1.07664,-0.0133597,-0.660804,0.297175,0.677817,-0.368799,-0.0437713,0.382817,-0.283808
-0.309288,0.453196,0.107377,0.0816079,0.18475,-1.25572,0.422023,-1.05631,0.703515,0.123788,1.49265,0.0649488,-1.65175,0.248852,0.604018,-0.29265,-0.196336,0.427231,-0.191027
-0.48766,0.103426,-0.405812,0.269293,0.241631,-1.27674,0.180529,-0.961639,0.787848,0.24516,1.38264,0.237238,-1.08644,-0.104728,0.555219,-0.100951,-0.203685,0.361752,-0.142541
-0.181497,-0.336364,-0.420143,0.563721,0.291879,-1.11747,0.101843,-0.850524,0.850703,0.449439,1.42784,0.265353,-1.08013,-0.41066,0.40983,0.305938,-0.486549,0.258377,-0.229236
-0.0300826,-0.754821,-0.102573,0.303779,0.514026,-1.14167,-0.00573254,-0.842524,0.747062,0.45283,1.6017,0.295727,-1.06024,-0.0451642,0.122445,0.267679,-0.541591,0.325491,-0.316048
0.256645,-0.766009,0.609516,0.35837,0.471999,-0.702608,-0.0993623,-0.760587,0.966823,0.544899,1.71247,0.390819,-1.88079,-0.860515,0.366233,0.487119,-0.474022,0.171666,-0.278292
0.388787,-0.713872,0.751827,0.332376,0.491946,-0.573874,-0.249518,-0.869476,1.03163,0.656148,0.999303,0.0611366,-1.49688,-0.678798,0.515879,0.520354,-0.21829,0.021676,-0.407169
0.529956,-0.729025,1.1212,0.0622505,0.654653,-0.797485,-0.00114763,-0.954212,1.24922,0.710606,0.525862,-0.175871,-2.31299,0.0751296,0.750704,0.25837,-0.222911,-0.098844,-0.287027
0.883649,-0.649151,1.11678,-0.117334,1.00975,-0.545826,0.214959,-0.814602,1.31274,0.613178,0.291686,-0.299626,-2.76811,0.157089,0.832329,0.437652,-0.12672,-0.301045,-0.445881
0.593465,-0.342737,0.925546,-0.365955,0.782843,-0.209911,0.217633,-0.752367,1.27394,0.666402,0.450543,-0.188226,-2.59639,-0.267548,0.719078,0.530671,0.0852574,-0.482496,-0.465597
0.597287,-0.267678,0.546196,0.340314,0.731766,-0.207007,0.247138,-0.632128,1.09214,0.548527,0.440083,-0.367945,-1.9905,-0.218971,0.728153,0.515398,-0.218755,-0.52035,-0.559233
0.661162,-0.152425,0.557179,0.699711,0.660978,-0.232842,0.421513,-0.583181,0.995818,0.351218,0.758908,-0.267593,-2.47025,-0.330594,1.08122,0.642323,-0.219158,-0.646571,-0.600041
0.642622,-0.464715,-0.200047,1.3441,0.449682,-0.190383,0.179489,-0.407098,0.84322,0.353825,0.476672,-0.112635,-1.5902,-0.297245,1.3252,0.741844,-0.258602,-0.907796,-0.69765
0.32357,-0.456721,-0.44663,1.52173,0.34722,0.0707641,0.176327,-0.172394,0.570301,0.320504,1.079,0.263747,-1.50261,-0.847957,1.3115,0.986085,-0.519853,-1.06347,-0.756397
0.102629,-0.00763736,-0.441038,1.06243,0.250871,-0.121313,0.0225411,-0.066634,0.393976,0.324404,0.654188,0.318688,-1.15041,-0.870099,1.30398,1.00324,-0.351226,-0.944853,-0.721155
-0.106684,-0.234627,-0.493743,0.966224,0.329523,-0.533987,-0.282971,-0.144009,0.296826,0.274167,0.711576,0.0692728,-0.688891,0.22169,1.26869,0.835451,-0.0826256,-0.922992,-0.829847
0.112834,-0.162474,-0.360942,0.941304,0.157885,-0.304788,-0.236082,-0.0434941,0.00835118,-0.0537724,0.490888,0.160624,-0.193182,0.568187,1.06477,0.481994,-0.0374144,-0.905888,-0.717232
0.697146,-0.613275,0.232276,1.11158,0.340279,-0.200645,0.0690482,0.149095,-0.0168365,-0.0248014,0.477399,0.322818,-1.2745,0.21934,1.1879,0.55821,-0.0269024,-0.838187,-0.776532
0.777691,-0.835257,0.123082,1.42765,0.491496,-0.180674,-0.0408411,0.101516,-0.218436,-0.202231,-0.304993,-0.107552,0.332055,0.603344,1.07941,0.163268,0.137787,-0.904547,-0.867771
0.931383,-0.736811,0.774429,1.32468,0.647427,-0.164326,0.214428,-0.0476813,-0.215709,-0.303665,0.164854,-0.106511,-1.02434,0.712026,1.37392,0.0310495,0.0904049,-0.81467,-0.844785
1.13122,-0.891808,1.07194,1.47781,0.774077,0.0675001,0.451676,-0.0286185,-0.234515,-0.371079,0.295866,0.0662019,-1.2923,0.335797,1.36281,-0.208453,0.119274,-0.773966,-0.813132
0.957811,-0.560095,0.743322,1.49018,0.607319,-0.152487,0.458171,-0.138412,-0.224435,-0.425275,-0.111222,-0.0447219,-0.529917,0.150379,1.20894,-0.325818,0.316864,-0.664911,-0.532693
1.13309,-0.813988,0.35406,1.7738,0.682963,0.0643744,0.572964,0.0031602,-0.173504,-0.531036,-0.410359,-0.0292438,-0.307662,0.0511114,1.11864,-0.663279,0.42676,-0.671576,-0.297556
0.563662,-0.65692,0.216102,1.12258,0.5466,0.142931,0.395596,0.115003,-0.211771,-0.478547,-0.284497,0.185191,-0.0215204,-0.17418,1.22523,-0.755256,0.506856,-0.823662,-0.142223
0.109663,-0.418341,0.150271,0.797181,0.101478,0.0110165,0.40606,0.238525,-0.0911777,-0.441242,0.240739,0.631304,0.0577503,-0.283267,0.906544,-0.920458,0.555013,-0.957638,-0.0293399
-0.0394342,-0.116036,-0.258947,1.02856,-0.0240824,-0.0678448,0.35639,0.371811,-0.24886,-0.723153,0.226463,0.948598,0.145874,-0.137958,0.680698,-1.25205,0.403286,-0.785913,0.33216
-0.0755394,-0.451585,-0.655475,0.913878,-0.0424663,-0.0259939,-0.0402043,0.377232,-0.301569,-0.491752,-0.190075,0.831638,0.678565,-0.288169,0.5569,-1.18804,0.42,-0.517101,0.614861
0.108849,-0.423157,-0.509213,0.929332,-0.0813662,-0.0485098,0.0634869,0.499212,-0.36006,-0.485766,0.222727,0.78778,0.231647,-0.511973,0.315689,-1.40294,0.483041,-0.300144,0.856521
-0.350923,-0.193807,-0.894657,0.737026,-0.115007,-0.0435862,-0.155209,0.408702,-0.620598,-0.582447,0.12778,0.674703,1.28483,-0.668742,-0.0677257,-1.22934,0.46763,-0.0369072,0.940064
0.327067,-0.0396609,-0.599087,0.801378,0.147745,0.197009,0.241067,0.280001,-0.634986,-0.470012,0.00270595,0.428871,-0.193139,-0.760183,-0.146518,-1.28069,0.472126,0.337124,1.19341
0.389885,-0.263713,-0.885349,1.17021,0.149688,0.460175,0.14419,0.221931,-0.799464,-0.309841,-0.157767,0.172678,0.410604,-1.02394,-0.538543,-0.968546,0.251032,0.507927,1.32153
0.477058,-0.284661,-0.643253,1.08539,-0.0976891,0.112781,0.369063,0.141977,-1.09076,-0.276947,-0.313857,0.185368,0.671586,-0.649033,-1.20051,-0.956919,0.319469,0.798517,1.48263
0.0277753,-0.0867732,-1.05612,0.54137,-0.174897,-0.105574,0.344589,0.0510046,-1.13529,-0.190496,-0.503387,0.12702,1.31145,-0.496405,-1.56518,-0.935748,0.475196,1.00986,1.61241
0.393504,-0.415789,-0.692208,0.684875,0.147011,-0.181946,0.675976,-0.00488365,-1.12436,-0.146423,-0.116573,0.141245,0.319987,-0.450211,-1.57547,-0.995161,0.444869,0.88722,1.84259
0.546585,-0.665749,-0.821727,0.889283,-0.232986,-0.0737643,0.802825,0.0213415,-1.03807,-0.102907,-0.473441,0.190451,1.29481,-0.319844,-1.92902,-1.18627,0.300677,0.799355,1.9914
0.450833,-0.359447,-0.553681,0.673684,0.0874766,-0.181199,0.952556,0.134661,-0.911352,-0.0837866,0.372295,0.578199,0.0872353,-0.304429,-2.09663,-1.35074,-0.199189,0.637921,2.06706
0.697796,-0.366012,-0.323941,0.723883,-0.129861,-0.174367,0.913924,0.178494,-0.648022,0.00682492,-0.201827,0.280602,0.357777,-0.130065,-2.42223,-1.60734,-0.0209486,0.582377,2.16898
1.33017,-0.758689,0.203043,1.1043,0.618643,0.0988399,0.927339,0.073924,-0.3609,0.308247,-0.0810943,0.243398,-1.17629,-0.741996,-2.36012,-1.45463,-0.0899127,0.300675,2.37107
1.31541,-0.598459,0.273696,1.39186,0.389579,0.528248,0.678502,0.179904,-0.147454,0.367552,-0.57596,0.34472,-0.735562,-1.77716,-2.45675,-1.53336,-0.0363291,0.30822,2.61034
1.53985,-1.00099,-0.2706,1.91688,0.108964,0.882999,0.36314,0.301686,-0.0324247,0.572697,-0.72777,-0.033603,0.294582,-2.11078,-3.36403,-1.46445,0.102188,0.314383,2.87426
1.86475,-1.18352,-0.472715,2.16716,-0.276932,1.00698,0.39844,0.20732,0.0656097,0.682512,-1.01937,-0.174901,0.498483,-1.90501,-3.36361,-1.62737,0.408155,0.288644,2.95755
1.35477,-0.679457,-0.700177,1.93784,-0.671925,1.39226,0.219862,0.190328,0.0760927,0.831397,-0.992882,-0.270894,1.24039,-2.36604,-3.58758,-1.63727,0.479848,0.156428,2.90348
2.05735,-0.865499,0.124488,1.67139,-0.493938,1.75913,0.588268,0.214394,0.404808,1.02514,-0.471806,-0.534252,-0.967622,-2.44321,-3.26003,-1.47595,0.507073,0.253578,2.92256
1.4504,-0.955309,-0.0812096,1.15069,-0.63755,1.68063,0.32385,0.395414,0.14751,0.887051,-0.215538,-0.351867,0.131124,-2.35438,-3.56556,-1.46862,0.440063,0.353473,2.89642
1.36981,-1.00956,-0.192178,1.27549,-0.516278,1.34972,0.160492,0.377585,-0.0592049,1.03325,-0.029118,-0.510002,0.415723,-1.38888,-3.80908,-1.55169,0.133849,0.2331,2.84604
0.777569,-0.723825,-0.142989,0.379809,-0.360252,1.07491,0.0941803,0.339437,-0.133677,1.02597,0.825463,-0.511008,0.0212149,-0.810028,-3.80594,-1.57794,0.135027,0.292437,2.56685
0.48027,-0.181528,-0.0419653,0.332733,-0.0766518,1.17383,0.0283571,0.460954,-0.205247,1.04842,0.125297,-0.415897,0.548643,-1.45355,-3.60561,-1.31238,0.06014,0.241693,2.19202
0.341257,-0.426881,-0.0590761,0.431733,0.365723,1.05724,0.131263,0.332231,-0.341821,1.13815,0.454198,-0.266322,0.835621,-1.57119,-3.60714,-0.987315,-0.100177,0.125931,1.77276
-0.139537,-0.424585,-0.38043,0.234287,0.705469,0.748844,0.159728,0.357398,-0.426417,0.985012,0.866657,-0.210534,0.860997,-1.46373,-3.43896,-0.755155,-0.0211037,0.328468,1.32918
-0.011786,-0.372834,-0.276225,0.636856,0.439377,0.61029,0.0517062,0.21219,-0.529534,0.947198,0.767328,-0.0858617,1.26136,-1.42188,-3.17482,-0.759406,-0.063183,0.24926,1.15902
-0.276924,-0.0334809,0.282704,0.319525,0.369134,0.71601,-0.0319047,0.19683,-0.563645,0.882334,1.18994,0.365634,0.693906,-1.82478,-2.84137,-0.73679,0.0418447,0.132135,0.915133
-0.153361,-0.0640437,0.151912,0.581647,0.054902,0.69023,-0.427077,0.0446136,-0.618166,0.852509,1.13334,0.363181,1.34357,-1.19841,-2.75096,-0.729044,-0.136891,-0.10618,0.846478
-0.270215,0.094549,-0.126079,0.465275,-0.284608,0.666968,-0.667573,-0.0652676,-0.844833,0.824048,0.779989,0.408345,2.20478,-0.815623,-3.00529,-0.31656,-0.201235,-0.184214,0.907119
0.744879,-0.0851038,0.605799,0.804663,0.214885,0.754265,-0.153723,-0.302969,-0.756419,0.749321,1.15689,0.62428,-0.423958,-0.724823,-2.43961,-0.215443,-0.108177,-0.111336,0.886431
0.59501,-0.558506,-0.201152,1.35207,-0.0695683,0.871963,-0.498568,-0.667476,-0.885368,0.749878,0.668504,0.368546,1.20517,-0.325979,-2.44459,0.224782,-0.0430891,-0.438082,0.769038
0.734186,-0.708495,-0.348452,1.55144,-0.471384,0.579089,-0.370084,-0.914389,-0.682133,0.927521,0.531577,0.217295,1.0215,0.334563,-2.56279,0.544869,0.289514,-0.570863,0.669333
1.00111,-0.369832,-0.120655,1.3631,-0.181814,0.283891,-0.197811,-1.19478,-0.541032,0.961269,0.0927458,0.437483,0.268312,0.472013,-2.19725,0.683321,0.522082,-0.788428,0.728314
0.0609124,0.0910497,-0.433303,0.669747,-0.32654,-0.0230065,-0.22012,-1.70048,-0.696467,0.795373,0.676319,0.744576,1.14675,0.807963,-2.53116,0.490328,0.317763,-0.870843,0.8925
-0.419719,0.50819,-0.208753,0.494425,-0.545015,-0.218348,-0.191145,-1.77279,-0.673984,0.908898,0.708809,1.11723,1.43433,0.112163,-2.4013,0.671896,0.452436,-1.10492,0.743001
-0.867538,0.830544,0.0081615,0.0718153,-0.28231,-0.395157,-0.0036099,-1.81184,-0.540977,1.18741,0.850947,0.956257,0.935683,-1.00843,-2.106,1.09607,0.667204,-1.11404,0.77271
-0.668593,0.615064,-0.0751823,0.368748,0.07267,-0.631381,0.273989,-1.85541,-0.457222,1.01509,0.897673,0.582523,0.550373,-0.922141,-1.52802,1.04105,0.437954,-0.987548,0.721491
-1.13894,0.66025,-0.0818123,-0.329875,0.224361,-0.858062,0.162572,-1.88615,-0.351072,1.05202,0.67016,0.189868,1.1415,-0.12283,-1.27642,1.0453,0.436838,-1.04202,0.587031
-1.31227,0.679127,0.19648,-0.877055,0.410853,-1.11268,0.237289,-1.88717,-0.162792,0.968512,1.12111,0.343856,0.197894,0.0335668,-0.760548,0.582927,0.367874,-0.891153,0.514654
-1.71634,0.807349,-0.184176,-0.993427,0.117042,-1.28764,-0.224195,-2.08392,-0.0162583,0.955224,1.35932,0.281396,1.12775,0.191029,-0.697793,0.593059,0.0606672,-0.747053,0.353469
-1.91695,0.961175,-0.209725,-0.946351,-0.0400025,-1.19066,-0.675448,-2.1088,0.173265,1.13652,0.963946,0.0998938,1.54362,-0.092102,-0.172814,0.884699,-0.29541,-0.625485,0.145542
-1.44384,0.435748,-0.220942,-0.471395,-0.54428,-1.05487,-1.04245,-2.14935,0.313134,0.975849,1.24525,0.0125843,1.53424,0.144429,0.12627,0.839248,-0.544971,-0.43542,0.0816987
-1.29218,0.597391,-0.105051,-0.393673,-0.494672,-1.08978,-1.41466,-2.29991,0.51806,0.99459,1.41227,0.0605719,0.99546,0.559854,0.385439,0.915095,-0.76746,-0.330243,-0.0890422
-1.45152,0.784219,-0.419139,-0.255308,-0.579342,-1.30191,-2.11672,-2.5779,0.538852,0.84094,1.55214,0.291032,1.55239,1.13316,0.409926,0.873105,-0.876147,-0.230179,-0.29764
-1.36789,0.991095,-0.303248,-0.0755937,-0.755695,-1.05017,-2.51801,-2.37535,0.492785,0.752734,1.45815,0.102347,1.44676,0.833232,0.389536,0.897418,-0.651828,-0.0246456,-0.345908
-1.31751,0.833514,-0.673322,0.150546,-0.854556,-0.579821,-2.67135,-2.06369,0.421847,0.557227,1.18397,0.0981642,2.13795,0.328766,0.19514,0.860268,-0.288278,0.0155347,-0.373839
-0.731736,1.09283,-0.276025,0.0204125,-0.550274,-0.302714,-2.48634,-1.91639,0.511493,0.619828,0.32044,0.294597,1.15131,-0.0612721,0.235312,1.23668,-0.0659738,0.0139837,-0.44568
-0.868635,1.1406,-0.393456,-0.0502176,-0.372002,-0.150164,-2.36613,-1.84001,0.498239,0.538297,0.837337,-0.025008,0.611953,0.243967,0.256679,0.947826,0.128639,0.0120763,-0.314221
-1.03587,1.39278,-0.917561,-0.0939751,-0.964338,0.106945,-2.27401,-1.76285,0.654427,0.434598,0.326902,-0.540076,1.02311,0.366103,0.528731,0.857378,0.313856,0.183152,-0.353939
-1.22339,1.39164,-1.05659,-0.392079,-1.07611,0.229925,-1.93199,-1.69098,0.671008,0.368003,0.205604,-0.492759,1.14296,0.217329,0.587581,0.836493,0.311965,0.273112,-0.384418
-1.34788,1.63622,-1.11824,-0.669199,-0.87429,0.161741,-1.66252,-1.5878,0.635457,0.291367,0.0828917,-0.29119,1.06829,0.301114,0.368745,0.612482,0.291561,0.32132,-0.346595
-1.37773,1.34539,-1.23952,-0.946969,-0.843421,0.247268,-1.34092,-1.60546,0.688799,0.222662,-0.0802059,-0.393925,1.20966,0.383563,0.542879,0.66914,0.345454,0.389231,-0.421035
-1.25982,1.25438,-1.38039,-1.04883,-0.781494,0.344275,-0.886821,-1.60226,0.68917,-0.0736041,-0.0686959,-0.438488,0.895485,0.337758,0.525626,0.685875,0.296026,0.563283,-0.483637
-1.34361,1.40226,-1.36495,-1.00397,-0.387449,0.109047,-0.660143,-1.52519,0.573421,-0.105171,-0.222323,-0.602606,0.869835,0.277822,0.586237,0.739374,0.136484,0.695226,-0.549576
-1.62168,1.53431,-1.56533,-1.09721,-0.511611,-0.272812,-0.579971,-1.4911,0.429309,-0.046506,-0.328053,-0.348373,1.39072,0.331774,0.443745,0.891588,-0.00042063,0.73549,-0.666969
-1.34296,1.53834,-1.05455,-1.00016,0.0634069,-0.340831,-0.159624,-1.62586,0.430367,0.0115546,0.481397,0.149629,-0.721346,0.351888,1.08961,1.2481,-0.317767,0.576592,-0.835027
-1.74061,1.48089,-1.08589,-0.881414,-0.655129,-0.528759,-0.733417,-1.58359,0.174356,0.0947101,-0.0997525,0.507567,1.86386,0.0675404,0.26649,1.3348,-0.561808,0.462549,-0.830132
-1.1184,1.40397,-0.982019,-0.105817,-1.18791,-0.683909,-0.926408,-1.4844,0.237756,0.402616,-0.0662122,0.392461,1.76671,-0.163464,0.130032,1.42517,-0.443633,0.540939,-0.839454
-1.10446,1.38066,-1.27541,0.196451,-1.25163,-0.998995,-1.22782,-1.56244,0.122999,0.515359,-0.112777,0.545319,2.00357,0.306556,0.29309,1.1239,-0.362668,0.518575,-0.943367
-0.827285,1.43904,-1.01775,0.289366,-1.2319,-1.01064,-1.21594,-1.47686,0.0208086,0.738403,-0.211641,0.530864,1.56408,0.190505,0.212969,1.37385,-0.204429,0.335846,-1.02327
-0.299246,1.21133,-0.393657,0.528292,-0.984096,-0.930949,-0.92125,-1.16965,0.0132382,1.00502,0.485052,0.177973,0.107233,0.353595,0.53987,1.57044,-0.242384,0.10692,-1.20087
-0.673187,1.30467,-0.690768,0.157085,-1.3015,-0.845864,-1.06406,-0.987974,-0.00106283,1.16101,-0.0255842,0.249028,1.08446,0.442924,0.393697,1.69041,-0.0536942,-0.200521,-1.24734
-1.00997,1.22791,-0.641646,-0.0726332,-1.43628,-0.721943,-1.31956,-0.847901,-0.0295121,1.25775,0.258913,0.146522,1.46486,0.427408,0.246164,1.80796,-0.183529,-0.504797,-1.19706
-0.971137,1.62126,-0.177546,-0.59281,-1.63829,-0.522922,-1.30343,-0.773325,0.171084,1.68444,0.723368,0.00236556,0.395999,-0.0348031,0.50482,2.28944,-0.274076,-0.611966,-1.22444
-1.31528,1.60685,-0.866898,-0.67512,-1.71301,-0.270323,-1.60627,-0.550102,0.264089,1.77453,0.595992,-0.118106,1.39396,0.0369641,0.323467,2.343,-0.68231,-0.862249,-1.29449
-1.68722,1.62993,-1.24976,-0.699813,-1.74999,0.0603912,-1.91573,-0.461796,0.437839,1.97381,0.628341,-0.122113,1.92332,-0.382822,0.360199,2.68747,-0.958352,-1.25936,-1.46268
-1.3626,2.20211,-0.800933,-0.699878,-2.23006,0.21012,-1.62722,-0.40247,0.816254,2.23989,1.12727,0.13791,0.00498008,-1.09823,0.692926,2.79751,-0.849883,-1.13754,-1.45822
-1.7398,2.08213,-1.70626,-0.392144,-2.67994,0.425847,-2.20112,-0.655378,0.781761,2.28865,0.550598,0.19218,1.77771,-1.19476,0.544304,2.98464,-1.04512,-1.27001,-1.42291
-1.54764,1.99532,-2.0314,-0.0785217,-2.9544,0.546587,-2.30844,-0.898919,0.982346,2.2201,0.606189,0.166377,1.60041,-0.811769,0.717397,3.02969,-1.33911,-1.17076,-1.2433
-1.53264,1.65723,-2.4062,0.0138082,-3.14394,0.429139,-2.56568,-1.09808,1.07338,2.14794,0.39792,0.396855,1.77476,-0.70329,0.916227,3.04997,-1.27269,-0.972646,-1.00143
-1.87962,1.82006,-2.76814,-0.178009,-3.58224,0.319021,-2.88637,-1.3566,0.935483,2.12435,0.284174,0.650895,2.59436,-0.620418,0.505924,3.02031,-1.00719,-0.786877,-0.879758
-1.5071,1.89363,-2.27457,-0.177684,-3.83125,0.0777899,-3.12551,-1.50463,1.18626,2.01564,0.792892,0.719867,1.65849,-0.231833,1.04502,2.65244,-0.893574,-0.430809,-0.853654
-1.81827,2.21958,-2.44095,-0.195902,-4.29583,-0.098908,-3.72133,-1.52689,1.20558,1.96173,0.916957,0.867236,2.28941,-0.0662752,0.935433,2.42562,-0.64851,-0.393185,-0.853604
-1.97741,2.21688,-2.33591,-0.316601,-4.63531,-0.290239,-4.26942,-1.81215,1.2811,1.88946,1.23445,1.1429,2.44085,0.464339,0.933064,2.00687,-0.371072,-0.276794,-0.828422
-1.34573,2.42228,-1.93446,0.0296845,-4.51776,0.0914821,-4.55401,-1.6189,1.35515,2.03969,0.162088,1.06347,2.43318,-0.971817,1.1608,2.32667,0.0612564,-0.220014,-0.788184
-1.29669,2.16991,-1.97418,0.287967,-4.32291,0.0353857,-5.05907,-1.57621,1.33445,2.12298,-0.291706,1.10843,2.71121,-1.40886,1.44581,2.27127,0.602736,-0.13762,-0.785368
-0.910921,2.08155,-1.1847,0.386576,-4.04412,-0.0241129,-4.94565,-1.60988,1.25227,2.05916,0.549306,0.993091,1.16199,-1.21048,1.56135,2.23019,0.534609,0.0173373,-0.759012
-1.2775,2.43747,-1.17894,-0.0231823,-4.33364,0.129378,-5.26999,-1.61954,1.15469,1.89905,0.29217,1.19671,2.07203,-1.18538,1.4789,2.0643,0.587077,0.215388,-0.785133
-1.44038,2.64767,-1.03094,-0.556666,-3.98787,0.298054,-4.96024,-1.60418,1.19605,1.70859,0.178666,1.17983,1.46496,-1.09169,1.80588,1.96911,0.510174,0.0518794,-0.770949
-1.38956,2.43146,-0.945186,-0.907604,-3.47549,0.514335,-4.66037,-1.6937,1.36054,1.64298,0.489757,0.96067,0.56087,-0.90938,2.3392,1.90656,0.474142,-0.124772,-0.866916
-1.9696,2.43668,-1.6706,-0.6461,-3.68831,0.819296,-4.5224,-1.54128,1.2249,1.3992,0.0146197,1.23502,2.42634,-0.985237,1.80884,1.61376,0.0749934,-0.251014,-0.900631
-2.37835,2.52936,-2.6568,-0.189851,-3.68271,1.01287,-4.36214,-1.4831,1.13508,1.01173,-0.184562,1.40195,3.50676,-0.789238,1.61852,1.28391,-0.429958,-0.352083,-0.843494
-1.59432,2.5285,-1.79346,0.376946,-3.31357,1.44056,-3.35979,-1.17003,1.28343,0.872542,0.845495,1.64354,1.0586,-1.78784,2.0983,1.29332,-0.818936,-0.573735,-1.00758
-1.63656,2.28764,-2.2954,0.470285,-3.28133,1.95489,-2.99575,-1.03917,1.14754,0.734645,0.791903,1.65749,1.61681,-1.83904,2.21234,1.17353,-0.912986,-0.835966,-1.09126
-1.40363,1.9554,-2.27879,0.840385,-3.13392,1.76209,-2.43939,-0.838028,1.09333,0.780188,1.16741,1.70198,0.948183,-1.71307,1.71412,0.812717,-0.716606,-0.943134,-0.836218
-0.795164,1.39111,-2.15071,0.991113,-2.7245,1.57167,-1.8779,-0.635698,1.00796,0.559894,0.5215,1.64106,0.644495,-1.51308,1.59415,0.568661,-0.268432,-0.697064,-0.857477
-0.520675,1.17483,-1.86615,0.796953,-2.00784,1.53038,-1.21483,-0.406084,1.09205,0.389494,0.0364684,1.50131,0.125141,-1.67409,1.40455,0.521077,-0.0755556,-0.459168,-0.814506
-0.500264,0.949762,-1.71008,0.61161,-1.32223,1.62625,-0.664983,0.0566242,0.946097,0.12879,0.119804,1.01012,-0.0533411,-1.95986,1.01355,0.479541,0.195867,-0.52297,-0.731181
-0.441634,0.967547,-1.40959,0.0204125,-0.727764,1.70221,0.107893,0.474133,0.977666,-0.213255,-0.282316,1.03522,-0.75879,-2.11869,0.890235,0.197444,0.353796,-0.451077,-0.629498
-0.756335,1.15865,-1.46373,-0.0309904,-0.0676731,1.36626,0.794653,0.697223,0.884966,-0.491444,-0.358726,1.16856,-0.969799,-1.94532,0.435854,-0.225474,0.165137,-0.245543,-0.461758
-0.495222,0.92623,-1.46614,-0.0686641,0.470127,1.02767,1.34614,0.859819,1.01717,-0.76156,-1.04956,0.963882,-1.16193,-1.7095,0.451875,-0.675326,0.335997,-0.123849,-0.330383
-0.614801,0.554083,-1.15283,-0.498886,1.08258,0.905018,1.73806,1.21218,0.956788,-0.884675,-1.18811,0.976059,-1.36147,-2.07594,0.189666,-0.744939,0.173726,0.076717,-0.167421
-0.869164,0.789195,-1.20834,-0.701309,1.41434,0.543296,2.04502,1.24405,0.930487,-0.940779,-1.11277,0.92336,-1.22416,-2.15953,0.14959,-1.1858,0.126437,0.2497,0.0486705
-0.970934,0.629173,-1.22291,-1.22428,1.51275,0.195294,2.46808,1.11187,0.707584,-1.11357,-0.889535,0.903575,-1.41396,-1.49836,-0.210266,-1.23833,0.106716,0.348422,0.441287
-1.05522,0.739594,-1.39261,-1.30594,1.27333,0.0208914,2.65988,1.06158,0.529645,-1.13959,-1.06913,1.14641,-0.929154,-1.38952,-0.630124,-1.61519,0.100979,0.390719,0.792677
-0.818909,0.66582,-1.22157,-1.01285,1.4254,0.356612,2.93861,1.15826,0.424749,-0.974871,0.0761675,1.16365,-2.3375,-2.01746,-0.742815,-1.60813,-0.0525468,0.407906,1.22582
-0.832489,0.0130054,-1.5299,-1.1503,1.23716,0.473507,2.7404,1.32594,0.301309,-0.772453,-0.149831,0.873678,-1.58808,-1.43705,-1.01591,-1.51174,-0.00364557,0.374768,1.4034
0.0996605,0.349276,-0.589309,-1.4432,1.5191,0.430965,3.14741,1.25231,0.456602,-0.48707,-0.8021,0.837091,-4.0708,-0.928868,-0.609974,-1.46425,-0.114286,0.313859,1.59129
-0.738364,0.300912,-1.45258,-1.65434,1.0577,0.657674,2.66642,1.41108,0.0253575,-0.588172,-0.883316,0.867942,-1.2453,-0.666815,-1.14414,-1.78101,-0.243935,0.0684588,1.75729
-0.880833,0.547405,-1.00198,-1.88904,0.959575,0.823888,2.6391,1.58053,-0.179711,-0.461536,0.0164775,0.98619,-1.6793,-0.887644,-1.95165,-1.99894,-0.578522,-0.0514325,2.19131
-0.85351,0.872263,-0.778097,-1.64413,1.32818,0.904409,2.16599,1.59143,-0.271887,-0.418625,-0.173961,1.19985,-1.35519,-1.30577,-1.86838,-1.79143,-1.02834,-0.326658,2.27663
-0.197964,0.508351,-0.607123,-1.34007,1.62135,1.13803,2.51056,1.55833,-0.315248,-0.244005,-0.479115,1.15287,-2.10308,-1.54119,-1.94451,-1.6202,-1.02406,-0.429886,2.39502
0.136945,-0.376719,-0.0601141,-1.08498,1.81807,1.3123,2.53452,1.45566,-0.351879,-0.157542,-0.409066,1.10753,-2.54738,-1.22408,-2.02529,-1.79367,-0.717443,-0.683796,2.53204
0.400944,-0.377425,0.250424,-1.02921,1.74236,1.12678,2.43569,1.27043,-0.221839,-0.250299,-0.311091,1.17336,-2.61617,-0.710034,-2.23438,-1.87351,-0.546831,-0.779457,2.57521
0.54874,-0.271113,0.447717,-1.14217,1.70332,1.15704,2.38816,1.27413,-0.257445,-0.165448,-0.36228,1.14955,-2.60171,-0.737264,-2.29659,-1.81934,-0.618958,-0.780149,2.63161
0.81896,-0.595185,0.692525,-0.88239,1.63578,1.06227,2.19027,1.24511,-0.0606667,-0.083111,-0.103791,1.01669,-2.93516,-0.889097,-2.29313,-1.82152,-0.424873,-1.04448,2.7732
1.0952,-0.494363,0.981801,-0.745717,1.50465,0.749148,2.00653,0.917867,0.0358951,-0.0568663,-0.894825,1.44445,-2.46181,-0.320097,-2.15157,-2.15648,-0.239624,-1.27893,2.72449
1.01791,0.0255098,1.36112,-0.724343,1.46861,0.895613,1.99053,0.811666,0.256017,-0.0609441,-0.693523,1.74065,-3.0684,-0.615989,-1.83389,-2.4309,-0.271843,-1.49266,2.58014
0.577405,0.167039,1.24884,-0.598276,1.27087,1.21792,1.85298,0.997027,0.407285,-0.107127,-0.30366,1.99704,-2.93576,-1.6805,-1.47589,-2.23523,-0.122596,-1.50212,2.26077
0.778952,-0.00303046,1.12512,-0.147655,1.30115,1.32353,1.64842,0.814884,0.417844,-0.0635164,-1.0748,2.11223,-2.28382,-1.65234,-1.37235,-2.3769,-0.13255,-1.33894,1.96538
1.46528,-0.524974,1.29515,0.223323,1.46222,1.71463,2.01417,0.784956,0.514493,-0.242049,-0.67961,1.98186,-3.32752,-1.60787,-0.895182,-2.48625,-0.15345,-1.05028,1.46186
1.09475,-0.33691,1.07007,0.236857,1.39463,1.74182,1.79363,0.571871,0.312141,-0.459497,-0.583573,2.21632,-2.40573,-1.32104,-0.806738,-2.52153,-0.333582,-1.01299,1.16165
0.701456,-0.323009,1.21502,-0.133145,1.44973,2.0083,1.62887,0.536699,0.380046,-0.530751,-0.158251,2.47619,-2.28298,-1.9304,-0.520506,-2.18041,0.0638611,-1.19908,0.572981
0.435748,-0.344679,0.981566,0.493156,1.4874,1.97843,1.33423,0.351007,0.42632,-0.746861,-0.297259,2.57947,-1.19841,-2.14533,-0.194869,-2.20213,-0.223035,-1.36288,0.180834
0.917477,-0.542422,1.71927,0.722972,2.10125,1.7323,1.90225,0.321873,0.65819,-0.997998,0.443798,2.32068,-3.04397,-1.94642,0.411639,-2.06093,-0.392158,-1.40819,-0.0920767
0.49442,-0.853123,1.75008,0.227976,2.46149,1.56794,2.05535,0.176334,0.737037,-1.38608,0.5256,2.29806,-2.70724,-1.43496,0.876151,-2.06918,-0.211313,-1.47776,-0.463234
0.271404,-0.50531,1.91646,-0.327272,2.98969,1.66445,2.26359,0.050101,0.74632,-1.7188,0.298309,2.35503,-3.09064,-0.898258,1.2345,-1.92034,-0.432191,-1.68539,-0.801245
0.116819,-0.853123,1.55071,-0.121368,3.30987,1.77919,2.28314,0.154649,0.889908,-1.78017,0.391761,2.13117,-2.90465,-0.965952,1.63624,-1.62655,-0.495635,-1.67338,-1.35124
0.0754277,-0.916817,1.01408,-0.0253946,3.43749,1.72774,2.05578,0.338754,0.912107,-2.15923,-0.863385,2.18602,-1.63124,-0.502845,1.87667,-1.92057,-0.277083,-1.79501,-1.58279
0.00943805,-1.21044,0.834066,-0.196586,3.42716,1.53964,1.95247,0.515212,0.977776,-2.07093,-0.594295,1.88451,-1.57566,-0.126887,2.00328,-1.82658,-0.123465,-1.72188,-1.83453
0.409198,-1.35232,1.11474,0.0978095,3.23404,1.7809,2.22661,0.802036,1.08189,-1.83613,-0.48164,1.79127,-2.6128,-0.690005,2.12918,-1.50391,0.0148358,-1.51838,-2.0654
0.303932,-1.13018,0.972425,0.0845033,3.30333,2.16157,2.2483,1.00492,1.10286,-1.94228,-0.62937,1.86652,-1.97958,-1.49396,2.10541,-1.65318,-0.207716,-1.50346,-2.15517
0.594929,-1.33348,0.898993,0.99365,3.14321,1.98153,2.25291,1.12291,1.15757,-1.80961,-0.66184,1.83188,-1.92506,-1.80338,1.96398,-1.68092,-0.272804,-1.58231,-2.10727
0.496574,-1.28728,0.550315,0.606697,2.93847,2.00531,2.24007,1.27125,1.32112,-1.59988,-0.509647,1.85193,-2.28724,-1.90374,1.95693,-1.64332,-0.227159,-1.4389,-2.07469
0.880193,-1.54014,0.883188,0.254328,2.25393,2.09098,2.42344,1.2805,1.31621,-1.35236,-0.896562,1.71207,-2.46255,-1.67323,1.75314,-1.48304,-0.102937,-1.22014,-1.84423
0.43278,-1.65098,0.4881,0.109294,2.01904,2.05344,2.17586,1.39768,1.53321,-1.08169,-0.944581,1.47893,-1.67396,-2.11763,1.84167,-1.19551,-0.063524,-1.24804,-1.81996
0.335564,-1.36815,0.576098,-0.394779,1.98912,1.65474,2.27647,1.37604,1.68083,-0.854542,-1.26137,1.2361,-1.972,-1.90553,1.83821,-1.09478,-0.118689,-1.14846,-1.71376
-0.231345,-1.30786,0.282336,-0.910434,1.73994,1.27584,2.06089,1.34655,1.67604,-0.736038,-1.06388,0.793869,-1.25335,-1.09782,1.60332,-1.06126,-0.0408564,-1.15405,-1.46937
-0.496849,-1.03029,0.302728,-1.60177,1.32112,0.948445,1.98093,1.43986,1.68046,-0.503144,-0.564612,0.58817,-1.40081,-1.05278,1.30776,-0.920441,-0.115185,-0.924354,-1.12789
-0.30754,-0.809911,0.569301,-2.08486,1.26409,0.583708,1.95538,1.58355,1.66498,-0.307234,-1.24517,0.303669,-1.99204,-1.00856,1.35596,-0.792087,0.130624,-0.619679,-0.63783
-0.80415,-0.79853,0.00521483,-2.74194,0.484152,0.200909,1.68417,1.76388,1.43301,-0.0367146,-1.51618,0.0138021,-0.916985,-1.09034,0.869589,-0.60116,0.599263,-0.303728,-0.143245
-0.251797,-1.10671,0.232309,-2.3625,0.222347,0.321815,1.79881,1.97906,1.32166,0.157678,-0.907749,-0.187626,-2.23737,-1.37649,0.829288,-0.624684,0.476375,0.160075,0.391141
-0.243136,-0.82927,0.0761693,-1.86871,-0.468352,0.502828,1.4179,2.19915,0.995622,0.368809,-0.659094,0.0180731,-1.30845,-2.79306,0.186721,-0.0858117,0.374014,0.566007,0.645593
0.322066,-0.867489,0.362733,-1.24862,-0.782892,-0.0515249,1.09596,2.12308,0.997182,0.564612,-1.05572,-0.146786,-1.33016,-2.66033,0.32542,-0.133447,0.458358,0.753243,0.797791
0.65734,-1.08496,0.290506,-0.690899,-0.453261,-0.294858,1.02339,2.02948,0.761384,0.382228,-0.658024,-0.276118,-1.80226,-2.03834,0.282655,-0.178881,0.29708,0.565986,1.09499
1.28333,-1.39683,0.485756,-0.19125,-0.498866,-0.13968,0.930735,2.14582,0.83482,0.678872,-0.226927,-0.24645,-2.66293,-2.32181,0.309799,0.310525,0.0214407,0.359929,1.16026
0.202772,-1.11055,0.267435,-0.595673,-0.687632,-0.465111,0.0371236,1.69964,0.621178,0.75469,-0.194033,0.169854,-1.08372,-2.02429,0.249749,0.0916056,-0.136581,0.252907,1.06535
-0.784146,-0.113323,0.633357,-1.52427,-1.05884,-0.690077,-0.595127,1.30505,0.554636,0.72208,0.468555,0.804864,-0.00959662,-1.60565,-0.295812,-0.405949,-0.194134,0.255359,1.00052
-0.412156,-0.384359,0.903647,-1.26492,-0.874859,-0.764209,-0.864363,1.20306,0.549357,0.856883,0.275047,0.760495,0.222246,-1.33929,0.0189572,-0.414434,-0.185111,0.160033,0.757034
-0.173446,-0.76434,1.20227,-1.17519,-0.840744,-0.594979,-0.903674,0.893251,0.556731,0.898574,0.149326,0.913176,-0.0325791,-1.02399,0.231247,-0.514476,-0.108983,0.0445644,0.736731
-0.354867,-0.672603,0.799442,-0.975338,-0.901416,-0.2324,-1.26915,0.625005,0.502221,0.7607,0.0908073,1.2487,0.529496,-1.51862,0.497681,-0.607629,-0.134194,0.111699,0.516615
-0.147709,-0.514797,0.859682,-1.01633,-0.885828,-0.567208,-1.22874,0.112667,0.727677,0.707666,0.185633,0.985025,-0.144896,-0.605578,0.766325,-0.805562,0.128794,0.26978,0.204456
-0.662535,-0.222139,0.0564132,-0.944106,-0.750815,-0.889015,-1.25247,-0.154698,0.765726,0.496428,-0.0935129,1.08024,0.821592,0.14017,0.956367,-0.954147,0.276986,0.120544,-0.0266909
-0.41614,0.125144,0.636605,-0.40981,-0.497326,-0.549034,-1.00596,-0.403682,0.827151,0.385215,0.173739,1.09042,-0.0542783,-0.525697,1.15813,-0.714745,0.0572252,-0.201821,-0.0996883
-0.709984,0.184022,0.333467,-0.263247,-0.342034,-0.478914,-1.19804,-0.489057,0.901035,0.25296,-0.456823,1.06575,0.38494,-0.83386,1.55266,-0.65923,-0.236244,-0.0620382,-0.21123
-0.621591,0.214473,0.162828,-0.296398,0.0354284,-0.636277,-1.12235,-0.628535,1.15309,0.0252341,-0.461426,0.902957,-0.0946778,0.121476,1.99008,-0.969134,-0.283316,-0.179498,-0.433978
-1.00025,0.542846,0.405024,-0.922309,0.486474,-0.830871,-1.07671,-0.720654,1.24175,-0.0673808,-0.207522,1.33447,0.0538286,0.0956321,1.69423,-1.07047,-0.112735,-0.364303,-0.638753
-1.10149,0.662481,0.474036,-0.749524,0.752898,-1.3184,-1.03636,-0.967898,1.33609,-0.276307,-0.23347,1.78376,-0.114027,-0.00566351,1.97396,-1.09658,-0.0215688,-0.524793,-0.846897
-1.26811,0.833626,0.529153,-0.993199,0.710018,-1.63334,-0.861349,-1.05836,1.49451,-0.18093,-0.354223,1.76336,0.176772,0.667252,2.04248,-1.50145,0.0320458,-0.473441,-1.27038
-0.993621,0.780029,0.962882,-0.550094,1.33585,-1.64305,-0.640169,-0.932328,1.44146,-0.323035,0.242738,1.89532,-0.639293,0.456429,2.13233,-1.54134,-0.20015,-0.593395,-1.54981
-0.500955,0.798489,1.48113,0.246097,1.68844,-1.6204,-0.594172,-1.00845,1.39897,-0.60798,0.0241507,1.82348,-0.810493,1.00068,2.34883,-1.84434,-0.598895,-0.742987,-1.81987
-0.95406,0.737395,1.36326,0.0406157,1.80805,-1.2127,-0.67721,-0.963071,1.32602,-0.608573,0.0213439,1.67263,-0.169464,0.921395,2.10812,-1.55848,-0.738963,-0.963989,-2.0724
-0.723076,0.452683,1.43947,-0.035057,1.86714,-0.481929,-0.360617,-0.73683,1.34612,-0.748994,0.0676057,1.74981,-0.368982,0.549527,2.20042,-1.41149,-0.684728,-1.33068,-2.17321
-0.505387,0.257813,1.43311,0.170229,1.83449,-0.222082,-0.0394401,-0.599027,1.41781,-1.00538,-0.112151,1.97614,-0.564866,0.208049,2.64139,-1.51842,-0.749816,-1.43058,-2.18826
0.112387,0.398219,1.30587,0.9889,1.70017,-0.359004,0.11927,-0.48498,1.39237,-0.85875,-0.334797,1.69165,-0.860755,-0.480991,2.69057,-1.13815,-0.901078,-1.39765,-2.05258
-0.278469,0.520053,1.29659,0.810357,1.43602,-0.64676,0.112966,-0.723761,1.3584,-0.924741,-0.0788731,1.37452,-0.256406,0.457021,2.56515,-1.61793,-0.779213,-1.54502,-1.95093
-0.331814,0.659592,1.12997,0.714253,1.26516,-0.860607,0.132982,-0.820354,1.24511,-1.00151,-0.6911,1.07779,0.0501087,1.03934,2.67351,-1.45424,-0.565716,-1.45728,-1.84955
-0.324576,0.338393,1.40227,0.187634,1.50086,-1.38553,0.315211,-0.715982,1.21458,-0.738279,-0.607562,0.617203,-0.678135,1.82332,2.68676,-1.25024,-0.383227,-1.47365,-1.85345
-0.603985,-0.184192,1.23267,-0.272258,1.36686,-1.53794,0.178067,-0.348301,0.925404,-0.683371,-0.51942,0.216342,0.258695,1.76849,2.27804,-0.843166,-0.172893,-1.36317,-1.67413
-0.569222,-0.00529378,1.22393,-0.113983,1.60363,-1.64222,0.228777,-0.0691463,0.823203,-0.378938,-0.43037,-0.00794144,0.0567555,1.12989,2.03536,-0.389012,-0.265145,-1.48921,-1.55769
-0.486481,0.195756,0.68844,0.112254,1.25796,-1.83933,0.121711,0.148699,0.684447,-0.257969,-0.632318,0.0586481,0.221064,0.937351,1.74928,0.025219,-0.135496,-1.44762,-1.26726
-0.285625,0.106395,-0.138536,0.602403,0.89099,-1.69157,-0.0739331,0.469395,0.572755,-0.0953561,-1.5497,-0.146521,1.0978,0.787714,1.74631,0.28554,-0.0437403,-1.51079,-1.04163
0.483279,0.481913,0.324493,0.61174,1.05159,-1.12552,0.510112,0.79289,0.422535,0.0681098,-0.717209,-0.103864,-1.64418,0.0805214,1.5332,0.400687,0.129879,-1.13926,-0.721155
0.422372,0.105657,-0.545343,1.04411,0.0348361,-0.931502,0.333041,1.09012,0.153826,0.196559,-1.83642,-0.0508461,0.0850149,-0.723167,0.979895,0.750346,0.527788,-0.631794,-0.386229
1.41307,-0.284677,-0.443348,1.04515,0.29529,-1.10499,0.927403,0.957161,0.0943535,0.18608,-1.78688,-0.320522,-2.32674,0.202066,1.35273,0.426462,0.4289,-0.278052,0.253479
0.748051,0.0569876,-1.12393,0.856131,-0.56039,-0.758981,0.719129,1.25564,-0.490406,0.0598002,-1.90202,-0.430705,-0.346014,-0.544712,0.641342,0.429907,0.24238,0.153494,0.921504
0.649818,0.135321,-0.983057,0.32909,-0.841929,-0.578355,0.564749,1.50117,-0.63887,0.207583,-2.08677,-0.552889,0.367105,-0.530903,0.248404,0.651901,0.0330381,0.370807,0.92536
1.00213,-0.0180069,-0.609433,0.0575331,-0.917194,-0.433467,0.676124,1.54538,-0.842465,0.280023,-1.95671,-0.769848,-0.279215,-0.0580607,0.222844,0.77676,0.0402322,0.406229,1.04862
1.02213,0.0711293,-0.149485,-0.306939,-0.908902,-0.364951,0.597523,1.61709,-1.0797,0.385677,-1.44017,-1.0421,-0.923718,0.238321,0.0429006,1.19294,-0.181358,0.30887,1.17027
0.646322,-0.109583,-0.157354,-0.235593,-0.696871,-0.252039,0.471183,1.76236,-1.30656,0.469745,-1.49251,-0.986189,0.195198,-0.481633,-0.158058,1.53857,-0.323442,0.142804,1.11669
1.12663,-0.18615,-0.0205685,-0.299554,-0.687016,-0.361383,0.664153,1.82252,-1.29986,0.511436,-1.92928,-1.02083,-0.855607,-0.058365,0.142147,1.62975,-0.416407,0.419728,1.14484
0.956673,-0.279974,-0.434341,-0.340123,-1.00625,-0.573874,0.397294,1.38586,-1.52931,0.387989,-1.61058,-0.899497,-0.0580558,1.12515,-0.0669734,1.20657,-0.567328,0.719435,1.09704
0.619649,0.154455,-0.793868,-0.361953,-1.19532,-0.540155,0.219756,1.03643,-1.58485,0.345658,-1.53968,-0.715118,0.399676,0.694769,-0.00687482,1.12731,-0.403507,1.06666,1.08465
0.790824,0.455781,-0.71779,-0.302677,-1.02333,-0.5071,0.428624,0.854508,-1.59905,0.314198,-1.54718,-0.651653,-0.132165,0.602702,-0.161627,0.843499,-0.40543,1.41172,1.09686
1.23283,0.0742433,-0.62775,0.243462,-0.769554,-0.760696,0.440914,0.596576,-1.58244,0.247484,-1.98738,-0.69761,-0.195532,0.756935,-0.193637,0.354195,-0.485247,1.8274,1.24899
1.57599,-0.164898,-0.50342,0.685819,-0.679175,-0.502287,0.503214,0.677191,-1.54411,0.177664,-1.73927,-0.496147,-0.555033,0.0108162,-0.433279,0.21344,-0.292619,2.20468,1.34259
1.61275,-0.227725,-0.305223,0.748348,-0.295103,-0.416649,0.64006,0.802741,-1.56052,0.129952,-1.48365,-0.555819,-0.768883,-0.402462,-0.564343,0.105686,-0.467262,2.33176,1.22659
1.34606,-0.130675,-0.176876,0.758011,-0.115552,-0.514237,0.669183,0.892766,-1.72375,-0.108194,-1.67996,-0.436388,0.450398,-0.566212,-0.766726,-0.270034,-0.522613,2.2422,1.18534
1.95571,-0.252573,0.581221,0.996708,0.378136,-0.393663,1.28157,0.686006,-1.40422,0.0970097,-0.455894,-0.176754,-2.14138,-1.00838,-0.581341,-0.202723,-0.425927,2.12935,0.909852
1.56591,-0.34118,-0.0922261,1.41291,0.52516,-0.143885,1.25529,0.564731,-1.48227,-0.110031,-0.63769,-0.443536,-0.585225,-0.106232,-0.861988,-0.64315,-0.543017,1.75421,0.661101
2.10562,-0.251835,0.712415,1.36287,1.11491,-0.0477907,1.76217,0.341332,-1.15372,-0.27697,-0.807915,-0.538876,-1.99647,0.73721,-0.45607,-0.747426,-0.739521,1.26641,0.273112
1.89041,-0.151719,0.593343,1.87537,1.03647,0.429831,1.95478,0.535619,-0.963408,-0.612212,-0.968166,-0.0629709,-1.35067,-0.563998,-0.290867,-0.977368,-0.605159,0.84117,-0.0218121
1.90618,-0.423606,0.970249,2.00658,1.3594,0.191559,2.16446,0.499851,-0.738202,-0.613231,-0.498945,-0.0852087,-2.00521,-0.102074,-0.227871,-1.24515,-0.197793,0.422704,-0.262415
1.73733,-0.187435,1.38965,1.73561,1.26632,0.258333,1.99586,0.447026,-0.610464,-0.82422,-0.600555,-0.0394978,-1.34562,0.094618,-0.277583,-1.39195,0.0388678,0.0941767,-0.563006
1.49675,0.139205,1.83225,1.39911,1.24213,0.206773,2.01286,0.430498,-0.509659,-0.995225,-0.368095,0.20374,-1.49972,0.317238,-0.311513,-1.64117,0.404372,-0.303393,-0.57454
1.63035,-0.24421,1.87571,1.89691,1.35139,-0.304788,1.90603,0.434377,-0.481712,-1.16318,-0.633591,0.0696258,-0.666067,0.850726,-0.00200931,-1.93373,0.236147,-0.531668,-0.667573
1.96977,-0.241016,2.6681,1.80412,1.58157,-0.573155,2.06478,0.438894,-0.194132,-1.38997,-0.0253015,0.0546065,-2.23764,0.994903,0.552835,-2.06408,0.216302,-0.574469,-0.567247
1.71065,-0.25779,2.54923,2.04067,1.6901,-0.5952,1.71115,0.663924,-0.255252,-1.45272,-0.101429,0.374177,-1.37378,-0.201139,0.387375,-2.02302,0.17661,-0.444873,-0.426634
1.0103,0.042284,2.17051,1.62734,1.89258,-0.566018,1.47392,0.850673,-0.401883,-1.52358,-0.168731,0.414204,-0.464646,-0.878043,0.109881,-2.15152,0.303406,-0.37625,-0.283942
0.777569,0.142159,2.15206,1.1287,2.34716,-1.19436,1.53259,0.778058,-0.402582,-1.69819,-0.184865,0.461892,-0.629056,0.0509086,0.187857,-2.38432,0.0385577,-0.36839,-0.00719251
0.51601,0.159062,1.94503,0.944883,2.64476,-1.28708,1.39583,0.881416,-0.347418,-1.93108,0.0598113,0.138174,-0.50382,0.440507,0.190946,-2.4408,-0.193018,-0.449694,0.201891
0.701252,0.104678,1.59106,1.85491,2.8425,-1.12502,1.45282,1.03174,-0.5625,-2.18676,0.0860822,0.532788,-0.550405,-0.211263,0.135985,-2.72325,-0.326853,-0.601465,0.545955
0.513204,0.286979,1.29187,1.92359,2.84764,-0.929953,1.40523,1.26247,-0.493024,-2.23297,0.0142159,0.466322,-0.490411,-0.517787,0.110778,-2.78462,-0.564413,-0.721,0.884167
0.907597,-0.115731,1.32077,2.2906,2.61368,-0.768302,1.43115,1.5906,-0.485551,-2.19565,-0.352506,0.175661,-0.357116,-0.856188,-0.270108,-2.5254,-0.84889,-0.625443,1.25675
1.31671,-0.0308002,1.81959,2.06215,2.3193,-0.564331,1.43187,1.78356,-0.387921,-2.24554,-0.0456761,0.149699,-1.32552,-1.06329,-0.166876,-2.68657,-0.746002,-0.500102,1.66947
0.787368,-0.0725673,1.1357,1.98045,1.92992,-0.308937,1.08577,1.85604,-0.364707,-2.13798,-0.174466,0.109618,-0.223648,-1.4068,-0.561751,-2.95927,-0.593779,-0.380609,1.96647
1.90232,-0.310135,1.16466,2.65943,1.72007,-0.239481,1.46551,1.97196,-0.0563142,-2.03276,-0.640476,-0.0892856,-1.69246,-1.34152,-0.331199,-2.89497,-0.600694,-0.0360478,2.23272
1.84841,-0.291595,0.988565,2.43446,1.32439,-0.000684105,1.26482,1.76633,-0.0887887,-2.04366,-1.0866,-0.164435,-0.782378,-1.22593,-0.774953,-3.02065,-0.79664,0.187805,2.55094
2.25634,-0.711994,0.766862,2.40641,1.04801,-0.135144,1.31264,1.79639,0.0388949,-1.86867,-1.47549,-0.171724,-0.908435,-1.11736,-0.654979,-3.05007,-0.349831,0.417212,2.7347
2.31164,-0.972773,0.656094,2.06394,1.46371,-0.096059,1.28677,1.69362,0.0842959,-1.81464,-1.39706,-0.164311,-1.9081,-0.579396,-0.2941,-2.7077,-0.619609,0.486338,2.68684
2.06614,-1.04483,-0.00663881,1.90501,1.14917,0.271306,1.18187,1.74823,0.0804234,-1.54303,-2.02009,-0.520203,-1.01452,-1.00932,-0.31561,-2.26361,-0.812486,0.640269,2.63062
2.34929,-1.46595,-0.265477,2.38354,0.913615,0.584095,1.21583,1.71053,0.157088,-1.22265,-1.71009,-0.654406,-1.2231,-1.5513,-0.63086,-1.9181,-0.923157,0.93287,2.59508
2.29545,-1.49212,-0.556192,2.15112,0.529022,0.615546,1.28681,1.80567,0.17404,-0.928404,-1.80813,-0.61902,-0.950522,-2.08908,-0.88161,-1.75161,-0.930754,1.18257,2.60604
1.55436,-1.22508,-0.548357,0.904183,0.286051,0.390967,1.07756,1.49196,0.247836,-0.608632,-1.51634,-0.743921,-0.742757,-0.980843,-1.15822,-2.02616,-0.951499,1.38844,2.65473
1.7396,-1.32346,-0.664315,1.44635,0.0262364,0.192306,1.0187,1.17811,0.325133,-0.112224,-1.18177,-0.87876,-0.595836,-1.66828,-1.29371,-1.80686,-1.07643,1.6929,2.7403
1.77689,-1.61965,-0.622593,1.54506,-0.0530323,-0.0826711,1.06557,0.86059,0.420222,0.353814,-1.17557,-0.795845,-0.786977,-1.90731,-1.2607,-1.60334,-0.963593,1.90948,2.61713
1.9403,-1.90158,-0.462703,1.64926,0.015244,-0.0640829,1.03969,0.482089,0.298102,0.55296,-1.48747,-0.594876,-0.390523,-1.94267,-1.52094,-1.38513,-0.857666,1.9181,2.48954
1.98543,-1.75737,-0.2043,1.53292,0.230236,-0.156498,1.17002,0.283747,0.30973,0.916746,-1.3094,-0.645581,-1.13654,-2.18829,-1.38112,-1.14033,-0.80433,2.03461,2.29114
2.14144,-2.15177,-0.773576,1.64487,0.368329,-0.138518,1.12532,-0.0100626,0.246134,1.13549,-1.78274,-0.964004,-0.715492,-1.68007,-1.12484,-1.02959,-0.7905,2.11898,1.90566
2.22345,-2.45984,-0.680187,1.53149,0.53928,0.0762409,1.27692,-0.134224,0.244879,1.03779,-1.66769,-1.01822,-1.01506,-1.33812,-0.81863,-0.864959,-0.61747,2.16781,1.42663
1.93887,-2.31158,-0.82675,1.64881,0.863675,0.376639,1.13158,-0.217991,0.0567193,1.06082,-1.24525,-0.817818,-0.859241,-1.75641,-0.826441,-0.587668,-0.678247,2.22686,1.10562
2.29362,-1.94762,-0.868807,2.41386,1.0089,0.483078,1.18989,-0.492826,-0.0945484,0.845017,-1.83989,-0.808534,-0.706063,-2.03345,-0.588959,-0.828951,-0.538242,2.24524,0.759834
2.0293,-2.15191,-0.74719,1.84241,0.822027,0.499093,1.18063,-0.45254,-0.0109459,0.85731,-1.25478,-0.618755,-0.948056,-1.56693,-0.573146,-0.697237,-0.457587,2.34513,0.339487
2.12847,-2.24285,-0.84443,2.02867,0.933562,0.637509,1.01522,-0.369876,-0.268604,0.867232,-1.54407,-0.435894,-0.451136,-1.44375,-0.530637,-0.423525,-0.460471,2.23577,-0.0186434
